Model,MDO3014
Firmware Version,1.20

Waveform Type,ANALOG
Point Format,Y
Horizontal Units,s
Horizontal Scale,0.001
Horizontal Delay,-0.00064
Sample Interval,1e-07
Record Length,100000
Gating,41.100% to 44.100%
Probe Attenuation,1
Vertical Units,V
Vertical Offset,0
Vertical Scale,0.01
Vertical Position,0
,
,
,
Label,
TIME,"MATH<CH2-CH1>"
-1.530100e-03,-0.00325938
-1.530000e-03,-0.00324688
-1.529900e-03,-0.00316094
-1.529800e-03,-0.00316094
-1.529700e-03,-0.00329219
-1.529600e-03,-0.00329219
-1.529500e-03,-0.00327188
-1.529400e-03,-0.00329688
-1.529300e-03,-0.00329063
-1.529200e-03,-0.00333281
-1.529100e-03,-0.0032375
-1.529000e-03,-0.00326875
-1.528900e-03,-0.00315938
-1.528800e-03,-0.003275
-1.528700e-03,-0.00324688
-1.528600e-03,-0.0033375
-1.528500e-03,-0.00328906
-1.528400e-03,-0.00337188
-1.528300e-03,-0.00331094
-1.528200e-03,-0.0031625
-1.528100e-03,-0.00324688
-1.528000e-03,-0.00320313
-1.527900e-03,-0.00325
-1.527800e-03,-0.00333281
-1.527700e-03,-0.0032625
-1.527600e-03,-0.0032875
-1.527500e-03,-0.00329531
-1.527400e-03,-0.00313906
-1.527300e-03,-0.00319063
-1.527200e-03,-0.00319375
-1.527100e-03,-0.00329844
-1.527000e-03,-0.00320781
-1.526900e-03,-0.00323281
-1.526800e-03,-0.00326719
-1.526700e-03,-0.00313438
-1.526600e-03,-0.00320313
-1.526500e-03,-0.00318906
-1.526400e-03,-0.0032
-1.526300e-03,-0.00325938
-1.526200e-03,-0.00324531
-1.526100e-03,-0.00330781
-1.526000e-03,-0.00317188
-1.525900e-03,-0.00332344
-1.525800e-03,-0.00333125
-1.525700e-03,-0.00325
-1.525600e-03,-0.00320156
-1.525500e-03,-0.00321719
-1.525400e-03,-0.00319688
-1.525300e-03,-0.00325156
-1.525200e-03,-0.00322344
-1.525100e-03,-0.00313125
-1.525000e-03,-0.00314688
-1.524900e-03,-0.00314688
-1.524800e-03,-0.00318125
-1.524700e-03,-0.00315781
-1.524600e-03,-0.00322188
-1.524500e-03,-0.00322188
-1.524400e-03,-0.0032
-1.524300e-03,-0.00320937
-1.524200e-03,-0.00331562
-1.524100e-03,-0.00322344
-1.524000e-03,-0.00319844
-1.523900e-03,-0.00312656
-1.523800e-03,-0.00318594
-1.523700e-03,-0.0032125
-1.523600e-03,-0.00334688
-1.523500e-03,-0.00320313
-1.523400e-03,-0.00323906
-1.523300e-03,-0.00302656
-1.523200e-03,-0.00316094
-1.523100e-03,-0.00316406
-1.523000e-03,-0.00314375
-1.522900e-03,-0.00320937
-1.522800e-03,-0.00314531
-1.522700e-03,-0.00313281
-1.522600e-03,-0.00324063
-1.522500e-03,-0.00320313
-1.522400e-03,-0.00319375
-1.522300e-03,-0.00320937
-1.522200e-03,-0.00322969
-1.522100e-03,-0.00312656
-1.522000e-03,-0.00322656
-1.521900e-03,-0.00315625
-1.521800e-03,-0.0031375
-1.521700e-03,-0.00313125
-1.521600e-03,-0.00309688
-1.521500e-03,-0.00317188
-1.521400e-03,-0.00309531
-1.521300e-03,-0.00318438
-1.521200e-03,-0.00324219
-1.521100e-03,-0.00316406
-1.521000e-03,-0.00311719
-1.520900e-03,-0.00316719
-1.520800e-03,-0.0031375
-1.520700e-03,-0.00321563
-1.520600e-03,-0.00313438
-1.520500e-03,-0.00312656
-1.520400e-03,-0.00310156
-1.520300e-03,-0.00305625
-1.520200e-03,-0.00313438
-1.520100e-03,-0.00304688
-1.520000e-03,-0.00309531
-1.519900e-03,-0.00316875
-1.519800e-03,-0.00309375
-1.519700e-03,-0.00310312
-1.519600e-03,-0.00310469
-1.519500e-03,-0.00319219
-1.519400e-03,-0.00319531
-1.519300e-03,-0.00300625
-1.519200e-03,-0.00316406
-1.519100e-03,-0.003125
-1.519000e-03,-0.00322969
-1.518900e-03,-0.00309531
-1.518800e-03,-0.00308906
-1.518700e-03,-0.00309219
-1.518600e-03,-0.00306719
-1.518500e-03,-0.00309531
-1.518400e-03,-0.00316719
-1.518300e-03,-0.0032
-1.518200e-03,-0.00304531
-1.518100e-03,-0.00313438
-1.518000e-03,-0.00323281
-1.517900e-03,-0.00306406
-1.517800e-03,-0.00309063
-1.517700e-03,-0.00312969
-1.517600e-03,-0.00314063
-1.517500e-03,-0.00315313
-1.517400e-03,-0.00308906
-1.517300e-03,-0.00310781
-1.517200e-03,-0.00304375
-1.517100e-03,-0.00307031
-1.517000e-03,-0.00312813
-1.516900e-03,-0.00300781
-1.516800e-03,-0.00306719
-1.516700e-03,-0.00311094
-1.516600e-03,-0.00311563
-1.516500e-03,-0.00308906
-1.516400e-03,-0.0031
-1.516300e-03,-0.00307187
-1.516200e-03,-0.003125
-1.516100e-03,-0.00312188
-1.516000e-03,-0.00303438
-1.515900e-03,-0.00305625
-1.515800e-03,-0.00301875
-1.515700e-03,-0.00307656
-1.515600e-03,-0.00313438
-1.515500e-03,-0.00304375
-1.515400e-03,-0.00303125
-1.515300e-03,-0.00305781
-1.515200e-03,-0.0031125
-1.515100e-03,-0.00304844
-1.515000e-03,-0.00313906
-1.514900e-03,-0.00308125
-1.514800e-03,-0.0030875
-1.514700e-03,-0.00320625
-1.514600e-03,-0.00306719
-1.514500e-03,-0.003125
-1.514400e-03,-0.00306563
-1.514300e-03,-0.003125
-1.514200e-03,-0.003075
-1.514100e-03,-0.00305313
-1.514000e-03,-0.00298594
-1.513900e-03,-0.00304844
-1.513800e-03,-0.00311563
-1.513700e-03,-0.00302656
-1.513600e-03,-0.00297344
-1.513500e-03,-0.00311875
-1.513400e-03,-0.0029625
-1.513300e-03,-0.00310156
-1.513200e-03,-0.00309063
-1.513100e-03,-0.00304219
-1.513000e-03,-0.00308594
-1.512900e-03,-0.00304375
-1.512800e-03,-0.00300156
-1.512700e-03,-0.00309531
-1.512600e-03,-0.00303906
-1.512500e-03,-0.00305625
-1.512400e-03,-0.00296094
-1.512300e-03,-0.002975
-1.512200e-03,-0.00299687
-1.512100e-03,-0.0030125
-1.512000e-03,-0.00303594
-1.511900e-03,-0.00300156
-1.511800e-03,-0.00290625
-1.511700e-03,-0.00291563
-1.511600e-03,-0.00297969
-1.511500e-03,-0.00294688
-1.511400e-03,-0.00302188
-1.511300e-03,-0.00299531
-1.511200e-03,-0.003025
-1.511100e-03,-0.00305938
-1.511000e-03,-0.00308594
-1.510900e-03,-0.00300938
-1.510800e-03,-0.00305156
-1.510700e-03,-0.00301719
-1.510600e-03,-0.00296406
-1.510500e-03,-0.00302656
-1.510400e-03,-0.00296719
-1.510300e-03,-0.00298438
-1.510200e-03,-0.00298125
-1.510100e-03,-0.00297656
-1.510000e-03,-0.00293906
-1.509900e-03,-0.00293438
-1.509800e-03,-0.00297031
-1.509700e-03,-0.00302969
-1.509600e-03,-0.00287969
-1.509500e-03,-0.00297656
-1.509400e-03,-0.00304063
-1.509300e-03,-0.00299844
-1.509200e-03,-0.00297344
-1.509100e-03,-0.00305625
-1.509000e-03,-0.00296406
-1.508900e-03,-0.00294844
-1.508800e-03,-0.003025
-1.508700e-03,-0.00305781
-1.508600e-03,-0.00303281
-1.508500e-03,-0.00303906
-1.508400e-03,-0.00295625
-1.508300e-03,-0.00295625
-1.508200e-03,-0.0028625
-1.508100e-03,-0.00289844
-1.508000e-03,-0.00305938
-1.507900e-03,-0.00288125
-1.507800e-03,-0.00301875
-1.507700e-03,-0.00297344
-1.507600e-03,-0.00290938
-1.507500e-03,-0.00296719
-1.507400e-03,-0.00285781
-1.507300e-03,-0.00285781
-1.507200e-03,-0.002925
-1.507100e-03,-0.00291563
-1.507000e-03,-0.00290625
-1.506900e-03,-0.00295938
-1.506800e-03,-0.00292031
-1.506700e-03,-0.00287656
-1.506600e-03,-0.00297813
-1.506500e-03,-0.00294375
-1.506400e-03,-0.00293281
-1.506300e-03,-0.00282656
-1.506200e-03,-0.00303281
-1.506100e-03,-0.00289844
-1.506000e-03,-0.002925
-1.505900e-03,-0.0029125
-1.505800e-03,-0.00287656
-1.505700e-03,-0.00291719
-1.505600e-03,-0.00289375
-1.505500e-03,-0.00291719
-1.505400e-03,-0.00287813
-1.505300e-03,-0.00285781
-1.505200e-03,-0.00289688
-1.505100e-03,-0.00288125
-1.505000e-03,-0.0030125
-1.504900e-03,-0.00296719
-1.504800e-03,-0.00290781
-1.504700e-03,-0.00289531
-1.504600e-03,-0.00287188
-1.504500e-03,-0.00297656
-1.504400e-03,-0.00289688
-1.504300e-03,-0.00288125
-1.504200e-03,-0.00287188
-1.504100e-03,-0.00273594
-1.504000e-03,-0.00287969
-1.503900e-03,-0.00295625
-1.503800e-03,-0.002925
-1.503700e-03,-0.00285469
-1.503600e-03,-0.00285156
-1.503500e-03,-0.00293438
-1.503400e-03,-0.00281094
-1.503300e-03,-0.00288438
-1.503200e-03,-0.00281562
-1.503100e-03,-0.00285469
-1.503000e-03,-0.00287188
-1.502900e-03,-0.00284219
-1.502800e-03,-0.00284531
-1.502700e-03,-0.00287813
-1.502600e-03,-0.00286406
-1.502500e-03,-0.00288438
-1.502400e-03,-0.00283125
-1.502300e-03,-0.00290313
-1.502200e-03,-0.00288125
-1.502100e-03,-0.00290156
-1.502000e-03,-0.00280313
-1.501900e-03,-0.00284063
-1.501800e-03,-0.002925
-1.501700e-03,-0.00275625
-1.501600e-03,-0.00283125
-1.501500e-03,-0.00300469
-1.501400e-03,-0.00284688
-1.501300e-03,-0.00283594
-1.501200e-03,-0.00282656
-1.501100e-03,-0.00284844
-1.501000e-03,-0.00287188
-1.500900e-03,-0.00283125
-1.500800e-03,-0.00285469
-1.500700e-03,-0.00279063
-1.500600e-03,-0.00275156
-1.500500e-03,-0.00287188
-1.500400e-03,-0.00287969
-1.500300e-03,-0.00274844
-1.500200e-03,-0.00276563
-1.500100e-03,-0.0028125
-1.500000e-03,-0.00278125
-1.499900e-03,-0.00291875
-1.499800e-03,-0.00274688
-1.499700e-03,-0.00285313
-1.499600e-03,-0.00268906
-1.499500e-03,-0.00274531
-1.499400e-03,-0.00278281
-1.499300e-03,-0.002825
-1.499200e-03,-0.00281406
-1.499100e-03,-0.00279844
-1.499000e-03,-0.00278125
-1.498900e-03,-0.00274375
-1.498800e-03,-0.00274375
-1.498700e-03,-0.00282188
-1.498600e-03,-0.00273438
-1.498500e-03,-0.00285781
-1.498400e-03,-0.00279844
-1.498300e-03,-0.00276875
-1.498200e-03,-0.00276406
-1.498100e-03,-0.00279219
-1.498000e-03,-0.00272344
-1.497900e-03,-0.00275156
-1.497800e-03,-0.002775
-1.497700e-03,-0.00279375
-1.497600e-03,-0.00279219
-1.497500e-03,-0.00289062
-1.497400e-03,-0.00277188
-1.497300e-03,-0.00271875
-1.497200e-03,-0.00269219
-1.497100e-03,-0.00273594
-1.497000e-03,-0.002775
-1.496900e-03,-0.00280156
-1.496800e-03,-0.00279844
-1.496700e-03,-0.00279063
-1.496600e-03,-0.00276875
-1.496500e-03,-0.00281562
-1.496400e-03,-0.00273125
-1.496300e-03,-0.00274531
-1.496200e-03,-0.00271406
-1.496100e-03,-0.0026625
-1.496000e-03,-0.00272031
-1.495900e-03,-0.00275938
-1.495800e-03,-0.00279688
-1.495700e-03,-0.00272188
-1.495600e-03,-0.00272813
-1.495500e-03,-0.00264375
-1.495400e-03,-0.00270313
-1.495300e-03,-0.00271406
-1.495200e-03,-0.00279844
-1.495100e-03,-0.00271406
-1.495000e-03,-0.0026875
-1.494900e-03,-0.00275156
-1.494800e-03,-0.00284688
-1.494700e-03,-0.00278281
-1.494600e-03,-0.00270937
-1.494500e-03,-0.00273281
-1.494400e-03,-0.00272344
-1.494300e-03,-0.00274063
-1.494200e-03,-0.00274531
-1.494100e-03,-0.00265313
-1.494000e-03,-0.00266719
-1.493900e-03,-0.00273906
-1.493800e-03,-0.00269688
-1.493700e-03,-0.00264844
-1.493600e-03,-0.00275469
-1.493500e-03,-0.00272969
-1.493400e-03,-0.00258906
-1.493300e-03,-0.00258594
-1.493200e-03,-0.00265469
-1.493100e-03,-0.00269844
-1.493000e-03,-0.00256094
-1.492900e-03,-0.00269688
-1.492800e-03,-0.00263906
-1.492700e-03,-0.0027125
-1.492600e-03,-0.0027375
-1.492500e-03,-0.00272656
-1.492400e-03,-0.00267188
-1.492300e-03,-0.00268125
-1.492200e-03,-0.00264531
-1.492100e-03,-0.0026625
-1.492000e-03,-0.00265469
-1.491900e-03,-0.0026
-1.491800e-03,-0.00261563
-1.491700e-03,-0.00270625
-1.491600e-03,-0.00263281
-1.491500e-03,-0.00259375
-1.491400e-03,-0.00254844
-1.491300e-03,-0.00265625
-1.491200e-03,-0.00262188
-1.491100e-03,-0.00257813
-1.491000e-03,-0.00258594
-1.490900e-03,-0.0026125
-1.490800e-03,-0.00253906
-1.490700e-03,-0.00268594
-1.490600e-03,-0.00263906
-1.490500e-03,-0.0025625
-1.490400e-03,-0.00261563
-1.490300e-03,-0.00265781
-1.490200e-03,-0.00263125
-1.490100e-03,-0.00257031
-1.490000e-03,-0.00262188
-1.489900e-03,-0.00258594
-1.489800e-03,-0.00259844
-1.489700e-03,-0.00262344
-1.489600e-03,-0.00274375
-1.489500e-03,-0.00249063
-1.489400e-03,-0.00256406
-1.489300e-03,-0.00257187
-1.489200e-03,-0.00256875
-1.489100e-03,-0.00268594
-1.489000e-03,-0.00259531
-1.488900e-03,-0.00256719
-1.488800e-03,-0.0025375
-1.488700e-03,-0.00255781
-1.488600e-03,-0.00254688
-1.488500e-03,-0.00252031
-1.488400e-03,-0.00255625
-1.488300e-03,-0.00260312
-1.488200e-03,-0.00257187
-1.488100e-03,-0.0025625
-1.488000e-03,-0.00260156
-1.487900e-03,-0.00251875
-1.487800e-03,-0.00255781
-1.487700e-03,-0.00265156
-1.487600e-03,-0.00260781
-1.487500e-03,-0.0025375
-1.487400e-03,-0.00245313
-1.487300e-03,-0.00262031
-1.487200e-03,-0.00258594
-1.487100e-03,-0.00258594
-1.487000e-03,-0.00252812
-1.486900e-03,-0.00256094
-1.486800e-03,-0.00253594
-1.486700e-03,-0.00249531
-1.486600e-03,-0.00255
-1.486500e-03,-0.00247656
-1.486400e-03,-0.00255625
-1.486300e-03,-0.00254688
-1.486200e-03,-0.0024875
-1.486100e-03,-0.00242813
-1.486000e-03,-0.00251094
-1.485900e-03,-0.00245
-1.485800e-03,-0.00252656
-1.485700e-03,-0.00251875
-1.485600e-03,-0.0025
-1.485500e-03,-0.0024625
-1.485400e-03,-0.00254531
-1.485300e-03,-0.00252812
-1.485200e-03,-0.00245781
-1.485100e-03,-0.00239844
-1.485000e-03,-0.00251563
-1.484900e-03,-0.0025
-1.484800e-03,-0.00245625
-1.484700e-03,-0.0024875
-1.484600e-03,-0.00250938
-1.484500e-03,-0.00235156
-1.484400e-03,-0.00244688
-1.484300e-03,-0.00246719
-1.484200e-03,-0.00247969
-1.484100e-03,-0.00248125
-1.484000e-03,-0.00241875
-1.483900e-03,-0.00247031
-1.483800e-03,-0.002475
-1.483700e-03,-0.00242656
-1.483600e-03,-0.00249219
-1.483500e-03,-0.00246875
-1.483400e-03,-0.00252188
-1.483300e-03,-0.00241875
-1.483200e-03,-0.00231562
-1.483100e-03,-0.00244688
-1.483000e-03,-0.00250625
-1.482900e-03,-0.00239844
-1.482800e-03,-0.00246562
-1.482700e-03,-0.00240938
-1.482600e-03,-0.00240781
-1.482500e-03,-0.00243125
-1.482400e-03,-0.00237344
-1.482300e-03,-0.00235937
-1.482200e-03,-0.0024125
-1.482100e-03,-0.00255313
-1.482000e-03,-0.00240469
-1.481900e-03,-0.00243594
-1.481800e-03,-0.00240781
-1.481700e-03,-0.00242031
-1.481600e-03,-0.00241719
-1.481500e-03,-0.00232812
-1.481400e-03,-0.00244063
-1.481300e-03,-0.002475
-1.481200e-03,-0.00243594
-1.481100e-03,-0.00233125
-1.481000e-03,-0.00235937
-1.480900e-03,-0.00244375
-1.480800e-03,-0.00242031
-1.480700e-03,-0.00238281
-1.480600e-03,-0.00246719
-1.480500e-03,-0.00245313
-1.480400e-03,-0.00231562
-1.480300e-03,-0.00239375
-1.480200e-03,-0.00237188
-1.480100e-03,-0.0023875
-1.480000e-03,-0.00241094
-1.479900e-03,-0.00235156
-1.479800e-03,-0.00240781
-1.479700e-03,-0.00232188
-1.479600e-03,-0.00239062
-1.479500e-03,-0.00237031
-1.479400e-03,-0.00234063
-1.479300e-03,-0.00230938
-1.479200e-03,-0.00235
-1.479100e-03,-0.00235469
-1.479000e-03,-0.00239375
-1.478900e-03,-0.00230469
-1.478800e-03,-0.00233594
-1.478700e-03,-0.00226563
-1.478600e-03,-0.00234531
-1.478500e-03,-0.00234063
-1.478400e-03,-0.00237969
-1.478300e-03,-0.00231562
-1.478200e-03,-0.0023125
-1.478100e-03,-0.00224531
-1.478000e-03,-0.00234063
-1.477900e-03,-0.00237344
-1.477800e-03,-0.00225312
-1.477700e-03,-0.00229688
-1.477600e-03,-0.002325
-1.477500e-03,-0.00224375
-1.477400e-03,-0.0023625
-1.477300e-03,-0.00222969
-1.477200e-03,-0.0022625
-1.477100e-03,-0.00239062
-1.477000e-03,-0.00227031
-1.476900e-03,-0.00235156
-1.476800e-03,-0.00225938
-1.476700e-03,-0.00236094
-1.476600e-03,-0.00232188
-1.476500e-03,-0.00236719
-1.476400e-03,-0.00234219
-1.476300e-03,-0.0021875
-1.476200e-03,-0.00227344
-1.476100e-03,-0.00219688
-1.476000e-03,-0.00229531
-1.475900e-03,-0.00217656
-1.475800e-03,-0.002325
-1.475700e-03,-0.00230938
-1.475600e-03,-0.00231562
-1.475500e-03,-0.00222813
-1.475400e-03,-0.002225
-1.475300e-03,-0.00227969
-1.475200e-03,-0.00234219
-1.475100e-03,-0.0023625
-1.475000e-03,-0.0022875
-1.474900e-03,-0.00220937
-1.474800e-03,-0.00222969
-1.474700e-03,-0.00228281
-1.474600e-03,-0.00219688
-1.474500e-03,-0.0022125
-1.474400e-03,-0.00228594
-1.474300e-03,-0.00228281
-1.474200e-03,-0.00231719
-1.474100e-03,-0.00229688
-1.474000e-03,-0.00242187
-1.473900e-03,-0.00228594
-1.473800e-03,-0.00218438
-1.473700e-03,-0.00216406
-1.473600e-03,-0.00222187
-1.473500e-03,-0.00217969
-1.473400e-03,-0.00210625
-1.473300e-03,-0.00216094
-1.473200e-03,-0.002225
-1.473100e-03,-0.00216094
-1.473000e-03,-0.00216094
-1.472900e-03,-0.00225312
-1.472800e-03,-0.00221406
-1.472700e-03,-0.00215156
-1.472600e-03,-0.00218906
-1.472500e-03,-0.00209219
-1.472400e-03,-0.002275
-1.472300e-03,-0.00220625
-1.472200e-03,-0.00220781
-1.472100e-03,-0.00221719
-1.472000e-03,-0.00230469
-1.471900e-03,-0.00214531
-1.471800e-03,-0.0022
-1.471700e-03,-0.00215469
-1.471600e-03,-0.002175
-1.471500e-03,-0.00224688
-1.471400e-03,-0.00216094
-1.471300e-03,-0.00211563
-1.471200e-03,-0.00224688
-1.471100e-03,-0.00218906
-1.471000e-03,-0.00214375
-1.470900e-03,-0.00227969
-1.470800e-03,-0.00214844
-1.470700e-03,-0.00214844
-1.470600e-03,-0.00206875
-1.470500e-03,-0.00205938
-1.470400e-03,-0.00215625
-1.470300e-03,-0.0021375
-1.470200e-03,-0.00207969
-1.470100e-03,-0.00215156
-1.470000e-03,-0.002175
-1.469900e-03,-0.00214375
-1.469800e-03,-0.00210156
-1.469700e-03,-0.00212969
-1.469600e-03,-0.00214844
-1.469500e-03,-0.00221094
-1.469400e-03,-0.00202031
-1.469300e-03,-0.002125
-1.469200e-03,-0.00217188
-1.469100e-03,-0.00209688
-1.469000e-03,-0.00215781
-1.468900e-03,-0.00223906
-1.468800e-03,-0.0021875
-1.468700e-03,-0.00206094
-1.468600e-03,-0.00207344
-1.468500e-03,-0.00209219
-1.468400e-03,-0.00208438
-1.468300e-03,-0.00209531
-1.468200e-03,-0.00215156
-1.468100e-03,-0.00215469
-1.468000e-03,-0.00220781
-1.467900e-03,-0.00210312
-1.467800e-03,-0.00209063
-1.467700e-03,-0.00210312
-1.467600e-03,-0.00207031
-1.467500e-03,-0.00207969
-1.467400e-03,-0.00209844
-1.467300e-03,-0.0020125
-1.467200e-03,-0.00203594
-1.467100e-03,-0.00199375
-1.467000e-03,-0.0020125
-1.466900e-03,-0.00204688
-1.466800e-03,-0.0021375
-1.466700e-03,-0.002175
-1.466600e-03,-0.00210156
-1.466500e-03,-0.00195
-1.466400e-03,-0.00194531
-1.466300e-03,-0.00204375
-1.466200e-03,-0.00205938
-1.466100e-03,-0.00205156
-1.466000e-03,-0.00195312
-1.465900e-03,-0.002075
-1.465800e-03,-0.00203281
-1.465700e-03,-0.00196562
-1.465600e-03,-0.00192813
-1.465500e-03,-0.00197813
-1.465400e-03,-0.0018875
-1.465300e-03,-0.00202344
-1.465200e-03,-0.00202031
-1.465100e-03,-0.00196406
-1.465000e-03,-0.00204531
-1.464900e-03,-0.00188437
-1.464800e-03,-0.00194375
-1.464700e-03,-0.00201563
-1.464600e-03,-0.00202969
-1.464500e-03,-0.00204688
-1.464400e-03,-0.00200313
-1.464300e-03,-0.00191719
-1.464200e-03,-0.00195469
-1.464100e-03,-0.00188906
-1.464000e-03,-0.00193438
-1.463900e-03,-0.002
-1.463800e-03,-0.00183281
-1.463700e-03,-0.00194688
-1.463600e-03,-0.00202031
-1.463500e-03,-0.0019375
-1.463400e-03,-0.00198281
-1.463300e-03,-0.0019
-1.463200e-03,-0.00195312
-1.463100e-03,-0.00199687
-1.463000e-03,-0.0019
-1.462900e-03,-0.00189219
-1.462800e-03,-0.00205469
-1.462700e-03,-0.00194375
-1.462600e-03,-0.00199844
-1.462500e-03,-0.00182969
-1.462400e-03,-0.00193125
-1.462300e-03,-0.00192031
-1.462200e-03,-0.00195469
-1.462100e-03,-0.00193906
-1.462000e-03,-0.00189063
-1.461900e-03,-0.00179531
-1.461800e-03,-0.00186719
-1.461700e-03,-0.00184531
-1.461600e-03,-0.00192188
-1.461500e-03,-0.0018625
-1.461400e-03,-0.00192188
-1.461300e-03,-0.00190313
-1.461200e-03,-0.00191719
-1.461100e-03,-0.00186563
-1.461000e-03,-0.00185469
-1.460900e-03,-0.00178125
-1.460800e-03,-0.00196562
-1.460700e-03,-0.00183594
-1.460600e-03,-0.00185469
-1.460500e-03,-0.00184531
-1.460400e-03,-0.00189531
-1.460300e-03,-0.001875
-1.460200e-03,-0.00183594
-1.460100e-03,-0.00182969
-1.460000e-03,-0.00191875
-1.459900e-03,-0.0018375
-1.459800e-03,-0.00175313
-1.459700e-03,-0.00182969
-1.459600e-03,-0.00180938
-1.459500e-03,-0.00183594
-1.459400e-03,-0.00184375
-1.459300e-03,-0.00185313
-1.459200e-03,-0.00175
-1.459100e-03,-0.00184375
-1.459000e-03,-0.00182656
-1.458900e-03,-0.00177969
-1.458800e-03,-0.00182969
-1.458700e-03,-0.0017625
-1.458600e-03,-0.00185625
-1.458500e-03,-0.00171094
-1.458400e-03,-0.00171563
-1.458300e-03,-0.0019
-1.458200e-03,-0.00172344
-1.458100e-03,-0.00173125
-1.458000e-03,-0.00177031
-1.457900e-03,-0.00177344
-1.457800e-03,-0.00176563
-1.457700e-03,-0.00175156
-1.457600e-03,-0.00179219
-1.457500e-03,-0.00176094
-1.457400e-03,-0.001725
-1.457300e-03,-0.00177031
-1.457200e-03,-0.00165469
-1.457100e-03,-0.00167344
-1.457000e-03,-0.00183906
-1.456900e-03,-0.00176094
-1.456800e-03,-0.00168281
-1.456700e-03,-0.00169063
-1.456600e-03,-0.00180313
-1.456500e-03,-0.00169688
-1.456400e-03,-0.001725
-1.456300e-03,-0.00161875
-1.456200e-03,-0.00172188
-1.456100e-03,-0.00175156
-1.456000e-03,-0.00166875
-1.455900e-03,-0.00170469
-1.455800e-03,-0.00166406
-1.455700e-03,-0.00162813
-1.455600e-03,-0.00171719
-1.455500e-03,-0.00174062
-1.455400e-03,-0.00170469
-1.455300e-03,-0.00166094
-1.455200e-03,-0.00158438
-1.455100e-03,-0.00176719
-1.455000e-03,-0.00163906
-1.454900e-03,-0.00161875
-1.454800e-03,-0.001625
-1.454700e-03,-0.00162813
-1.454600e-03,-0.001675
-1.454500e-03,-0.00161875
-1.454400e-03,-0.00169063
-1.454300e-03,-0.0016375
-1.454200e-03,-0.00165156
-1.454100e-03,-0.00170625
-1.454000e-03,-0.00175938
-1.453900e-03,-0.00157188
-1.453800e-03,-0.00157188
-1.453700e-03,-0.00156719
-1.453600e-03,-0.0016125
-1.453500e-03,-0.00157188
-1.453400e-03,-0.00154375
-1.453300e-03,-0.00165781
-1.453200e-03,-0.001575
-1.453100e-03,-0.00152812
-1.453000e-03,-0.00149531
-1.452900e-03,-0.00154219
-1.452800e-03,-0.00152188
-1.452700e-03,-0.00162344
-1.452600e-03,-0.00156875
-1.452500e-03,-0.00154844
-1.452400e-03,-0.00161875
-1.452300e-03,-0.00153125
-1.452200e-03,-0.00155
-1.452100e-03,-0.00157344
-1.452000e-03,-0.00145938
-1.451900e-03,-0.001575
-1.451800e-03,-0.00148125
-1.451700e-03,-0.0015375
-1.451600e-03,-0.00148125
-1.451500e-03,-0.00150781
-1.451400e-03,-0.00156875
-1.451300e-03,-0.00147969
-1.451200e-03,-0.00155313
-1.451100e-03,-0.00144063
-1.451000e-03,-0.00146719
-1.450900e-03,-0.00152656
-1.450800e-03,-0.00137813
-1.450700e-03,-0.00145469
-1.450600e-03,-0.00146406
-1.450500e-03,-0.001475
-1.450400e-03,-0.00147031
-1.450300e-03,-0.00138125
-1.450200e-03,-0.00145312
-1.450100e-03,-0.0014375
-1.450000e-03,-0.00144375
-1.449900e-03,-0.00146094
-1.449800e-03,-0.00140156
-1.449700e-03,-0.00129844
-1.449600e-03,-0.00140469
-1.449500e-03,-0.00143906
-1.449400e-03,-0.00138594
-1.449300e-03,-0.0015125
-1.449200e-03,-0.00150938
-1.449100e-03,-0.00131094
-1.449000e-03,-0.00145625
-1.448900e-03,-0.00144375
-1.448800e-03,-0.00139531
-1.448700e-03,-0.00130781
-1.448600e-03,-0.00136719
-1.448500e-03,-0.00140781
-1.448400e-03,-0.00150625
-1.448300e-03,-0.00125938
-1.448200e-03,-0.00132344
-1.448100e-03,-0.001375
-1.448000e-03,-0.00138437
-1.447900e-03,-0.00138437
-1.447800e-03,-0.00141875
-1.447700e-03,-0.00127656
-1.447600e-03,-0.00136563
-1.447500e-03,-0.00133906
-1.447400e-03,-0.00131719
-1.447300e-03,-0.00126719
-1.447200e-03,-0.00128906
-1.447100e-03,-0.00134531
-1.447000e-03,-0.00125938
-1.446900e-03,-0.00130937
-1.446800e-03,-0.00122188
-1.446700e-03,-0.00129375
-1.446600e-03,-0.00116562
-1.446500e-03,-0.00127812
-1.446400e-03,-0.00131094
-1.446300e-03,-0.001325
-1.446200e-03,-0.00129219
-1.446100e-03,-0.00124062
-1.446000e-03,-0.00115156
-1.445900e-03,-0.0013125
-1.445800e-03,-0.00127812
-1.445700e-03,-0.00130625
-1.445600e-03,-0.0013
-1.445500e-03,-0.00120156
-1.445400e-03,-0.00124062
-1.445300e-03,-0.00125156
-1.445200e-03,-0.0011125
-1.445100e-03,-0.00120469
-1.445000e-03,-0.00122656
-1.444900e-03,-0.00130625
-1.444800e-03,-0.00119375
-1.444700e-03,-0.00121406
-1.444600e-03,-0.00109844
-1.444500e-03,-0.00120938
-1.444400e-03,-0.00120469
-1.444300e-03,-0.00119844
-1.444200e-03,-0.00117187
-1.444100e-03,-0.00127031
-1.444000e-03,-0.00112188
-1.443900e-03,-0.00109063
-1.443800e-03,-0.00107344
-1.443700e-03,-0.00106875
-1.443600e-03,-0.00108906
-1.443500e-03,-0.00111875
-1.443400e-03,-0.00122031
-1.443300e-03,-0.00115
-1.443200e-03,-0.0011375
-1.443100e-03,-0.00119375
-1.443000e-03,-0.00111094
-1.442900e-03,-0.001125
-1.442800e-03,-0.00100625
-1.442700e-03,-0.00112188
-1.442600e-03,-0.00104844
-1.442500e-03,-0.00114844
-1.442400e-03,-0.00110625
-1.442300e-03,-0.00126094
-1.442200e-03,-0.00110469
-1.442100e-03,-0.00103594
-1.442000e-03,-0.00107969
-1.441900e-03,-0.0011125
-1.441800e-03,-0.00102969
-1.441700e-03,-0.00110469
-1.441600e-03,-0.00101563
-1.441500e-03,-0.00099375
-1.441400e-03,-0.00111719
-1.441300e-03,-0.000971875
-1.441200e-03,-0.00100938
-1.441100e-03,-0.00107656
-1.441000e-03,-0.00105313
-1.440900e-03,-0.000985938
-1.440800e-03,-0.00102969
-1.440700e-03,-0.000915625
-1.440600e-03,-0.000978125
-1.440500e-03,-0.00108281
-1.440400e-03,-0.00100781
-1.440300e-03,-0.000976562
-1.440200e-03,-0.000917188
-1.440100e-03,-0.00100625
-1.440000e-03,-0.000939063
-1.439900e-03,-0.000896875
-1.439800e-03,-0.000954688
-1.439700e-03,-0.00100156
-1.439600e-03,-0.000946875
-1.439500e-03,-0.000901563
-1.439400e-03,-0.000970313
-1.439300e-03,-0.0009875
-1.439200e-03,-0.000896875
-1.439100e-03,-0.00086875
-1.439000e-03,-0.0009625
-1.438900e-03,-0.000882813
-1.438800e-03,-0.000840625
-1.438700e-03,-0.000892188
-1.438600e-03,-0.000839063
-1.438500e-03,-0.000870312
-1.438400e-03,-0.000904688
-1.438300e-03,-0.000898438
-1.438200e-03,-0.000832813
-1.438100e-03,-0.000882813
-1.438000e-03,-0.00093125
-1.437900e-03,-0.000870312
-1.437800e-03,-0.0007875
-1.437700e-03,-0.000846875
-1.437600e-03,-0.000753125
-1.437500e-03,-0.0008625
-1.437400e-03,-0.000803125
-1.437300e-03,-0.00081875
-1.437200e-03,-0.00085
-1.437100e-03,-0.000785938
-1.437000e-03,-0.000835938
-1.436900e-03,-0.000840625
-1.436800e-03,-0.000745312
-1.436700e-03,-0.000679688
-1.436600e-03,-0.0007375
-1.436500e-03,-0.000721875
-1.436400e-03,-0.000792188
-1.436300e-03,-0.000701563
-1.436200e-03,-0.000698438
-1.436100e-03,-0.000771875
-1.436000e-03,-0.000801563
-1.435900e-03,-0.000757813
-1.435800e-03,-0.000792188
-1.435700e-03,-0.000760938
-1.435600e-03,-0.000717188
-1.435500e-03,-0.000695313
-1.435400e-03,-0.000642188
-1.435300e-03,-0.000770313
-1.435200e-03,-0.000721875
-1.435100e-03,-0.000801563
-1.435000e-03,-0.00073125
-1.434900e-03,-0.000684375
-1.434800e-03,-0.000671875
-1.434700e-03,-0.0006875
-1.434600e-03,-0.000625
-1.434500e-03,-0.000714063
-1.434400e-03,-0.00071875
-1.434300e-03,-0.000685938
-1.434200e-03,-0.000695313
-1.434100e-03,-0.00065
-1.434000e-03,-0.00075
-1.433900e-03,-0.000546875
-1.433800e-03,-0.0006125
-1.433700e-03,-0.000692187
-1.433600e-03,-0.000560938
-1.433500e-03,-0.000628125
-1.433400e-03,-0.000615625
-1.433300e-03,-0.000567187
-1.433200e-03,-0.000698438
-1.433100e-03,-0.000570313
-1.433000e-03,-0.000609375
-1.432900e-03,-0.000673437
-1.432800e-03,-0.000559375
-1.432700e-03,-0.000628125
-1.432600e-03,-0.000646875
-1.432500e-03,-0.000603125
-1.432400e-03,-0.000454688
-1.432300e-03,-0.00056875
-1.432200e-03,-0.000521875
-1.432100e-03,-0.000635938
-1.432000e-03,-0.000576563
-1.431900e-03,-0.000595313
-1.431800e-03,-0.000495312
-1.431700e-03,-0.0005
-1.431600e-03,-0.00055625
-1.431500e-03,-0.0005375
-1.431400e-03,-0.000525
-1.431300e-03,-0.000495312
-1.431200e-03,-0.000446875
-1.431100e-03,-0.0004875
-1.431000e-03,-0.00044375
-1.430900e-03,-0.000451563
-1.430800e-03,-0.00053125
-1.430700e-03,-0.000490625
-1.430600e-03,-0.000510937
-1.430500e-03,-0.000507813
-1.430400e-03,-0.000409375
-1.430300e-03,-0.00041875
-1.430200e-03,-0.00046875
-1.430100e-03,-0.000364063
-1.430000e-03,-0.000378125
-1.429900e-03,-0.000460938
-1.429800e-03,-0.000382813
-1.429700e-03,-0.000398438
-1.429600e-03,-0.00040625
-1.429500e-03,-0.000489063
-1.429400e-03,-0.000378125
-1.429300e-03,-0.000304687
-1.429200e-03,-0.00031875
-1.429100e-03,-0.000303125
-1.429000e-03,-0.000445313
-1.428900e-03,-0.000276563
-1.428800e-03,-0.000264063
-1.428700e-03,-0.000410938
-1.428600e-03,-0.000442188
-1.428500e-03,-0.000271875
-1.428400e-03,-0.00024375
-1.428300e-03,-0.000373438
-1.428200e-03,-0.000384375
-1.428100e-03,-0.000195313
-1.428000e-03,-0.000276563
-1.427900e-03,-0.000384375
-1.427800e-03,-0.000329688
-1.427700e-03,-0.000276563
-1.427600e-03,-0.000342187
-1.427500e-03,-0.000271875
-1.427400e-03,-0.00035625
-1.427300e-03,-0.000320313
-1.427200e-03,-0.00031875
-1.427100e-03,-0.000240625
-1.427000e-03,-0.000254688
-1.426900e-03,-0.000284375
-1.426800e-03,-0.000126562
-1.426700e-03,-0.000226563
-1.426600e-03,-0.000210937
-1.426500e-03,-0.000189063
-1.426400e-03,-0.00025
-1.426300e-03,-0.000209375
-1.426200e-03,-0.000204688
-1.426100e-03,-0.000142188
-1.426000e-03,-0.00023125
-1.425900e-03,-0.000129688
-1.425800e-03,-0.000165625
-1.425700e-03,-0.00014375
-1.425600e-03,-0.000159375
-1.425500e-03,-0.000132813
-1.425400e-03,-0.000203125
-1.425300e-03,-8.4375e-05
-1.425200e-03,-0.00011875
-1.425100e-03,-0.000176563
-1.425000e-03,-0.00015
-1.424900e-03,-0.00018125
-1.424800e-03,-8.4375e-05
-1.424700e-03,-6.25e-05
-1.424600e-03,-0.00015
-1.424500e-03,-0.0001625
-1.424400e-03,-5.625e-05
-1.424300e-03,-5.3125e-05
-1.424200e-03,-1.5625e-06
-1.424100e-03,-7.5e-05
-1.424000e-03,-7.8125e-06
-1.423900e-03,-0.000135938
-1.423800e-03,-0.0001125
-1.423700e-03,-0.000125
-1.423600e-03,0
-1.423500e-03,-7.8125e-06
-1.423400e-03,-6.25e-05
-1.423300e-03,3.59375e-05
-1.423200e-03,-2.34375e-05
-1.423100e-03,3.75e-05
-1.423000e-03,2.8125e-05
-1.422900e-03,5.78125e-05
-1.422800e-03,-1.09375e-05
-1.422700e-03,3.28125e-05
-1.422600e-03,-6.71875e-05
-1.422500e-03,-6.40625e-05
-1.422400e-03,-1.71875e-05
-1.422300e-03,7.5e-05
-1.422200e-03,6.25e-05
-1.422100e-03,0
-1.422000e-03,8.28125e-05
-1.421900e-03,4.6875e-06
-1.421800e-03,7.96875e-05
-1.421700e-03,6.5625e-05
-1.421600e-03,7.34375e-05
-1.421500e-03,2.03125e-05
-1.421400e-03,8.28125e-05
-1.421300e-03,0.000103125
-1.421200e-03,0.00019375
-1.421100e-03,-7.8125e-06
-1.421000e-03,0.000109375
-1.420900e-03,0.000198438
-1.420800e-03,7.65625e-05
-1.420700e-03,0.00011875
-1.420600e-03,0.00016875
-1.420500e-03,0.00015625
-1.420400e-03,0.000157813
-1.420300e-03,0.000148437
-1.420200e-03,0.00014375
-1.420100e-03,6.40625e-05
-1.420000e-03,0.000175
-1.419900e-03,0.000115625
-1.419800e-03,0.00015
-1.419700e-03,0.000195313
-1.419600e-03,2.1875e-05
-1.419500e-03,0.000165625
-1.419400e-03,0.000221875
-1.419300e-03,0.000165625
-1.419200e-03,0.000351563
-1.419100e-03,0.000259375
-1.419000e-03,0.000270312
-1.418900e-03,0.000221875
-1.418800e-03,0.000189063
-1.418700e-03,0.000175
-1.418600e-03,0.000192188
-1.418500e-03,0.000214063
-1.418400e-03,0.000267188
-1.418300e-03,0.000340625
-1.418200e-03,0.000290625
-1.418100e-03,0.000257813
-1.418000e-03,0.000428125
-1.417900e-03,0.000326563
-1.417800e-03,0.000326563
-1.417700e-03,0.000332812
-1.417600e-03,0.000309375
-1.417500e-03,0.000290625
-1.417400e-03,0.000278125
-1.417300e-03,0.000328125
-1.417200e-03,0.000329688
-1.417100e-03,0.000389063
-1.417000e-03,0.000365625
-1.416900e-03,0.000359375
-1.416800e-03,0.000421875
-1.416700e-03,0.000282813
-1.416600e-03,0.000353125
-1.416500e-03,0.000392188
-1.416400e-03,0.00045625
-1.416300e-03,0.000440625
-1.416200e-03,0.000395312
-1.416100e-03,0.000517188
-1.416000e-03,0.00040625
-1.415900e-03,0.000325
-1.415800e-03,0.000309375
-1.415700e-03,0.000490625
-1.415600e-03,0.00043125
-1.415500e-03,0.000409375
-1.415400e-03,0.000459375
-1.415300e-03,0.000479688
-1.415200e-03,0.000382813
-1.415100e-03,0.000476563
-1.415000e-03,0.000565625
-1.414900e-03,0.000507813
-1.414800e-03,0.0004375
-1.414700e-03,0.000576563
-1.414600e-03,0.000434375
-1.414500e-03,0.00046875
-1.414400e-03,0.000389063
-1.414300e-03,0.000440625
-1.414200e-03,0.00055625
-1.414100e-03,0.000565625
-1.414000e-03,0.000521875
-1.413900e-03,0.000582812
-1.413800e-03,0.000573438
-1.413700e-03,0.000496875
-1.413600e-03,0.000578125
-1.413500e-03,0.000567187
-1.413400e-03,0.0006125
-1.413300e-03,0.000665625
-1.413200e-03,0.000582812
-1.413100e-03,0.00050625
-1.413000e-03,0.000546875
-1.412900e-03,0.000615625
-1.412800e-03,0.000653125
-1.412700e-03,0.000601562
-1.412600e-03,0.000621875
-1.412500e-03,0.00058125
-1.412400e-03,0.000671875
-1.412300e-03,0.000710937
-1.412200e-03,0.00060625
-1.412100e-03,0.000725
-1.412000e-03,0.00064375
-1.411900e-03,0.00063125
-1.411800e-03,0.000740625
-1.411700e-03,0.00070625
-1.411600e-03,0.000623438
-1.411500e-03,0.000684375
-1.411400e-03,0.000757813
-1.411300e-03,0.000678125
-1.411200e-03,0.000728125
-1.411100e-03,0.000667188
-1.411000e-03,0.000695313
-1.410900e-03,0.000734375
-1.410800e-03,0.000773438
-1.410700e-03,0.000753125
-1.410600e-03,0.00085625
-1.410500e-03,0.00073125
-1.410400e-03,0.000810938
-1.410300e-03,0.000804688
-1.410200e-03,0.00085
-1.410100e-03,0.000790625
-1.410000e-03,0.00075625
-1.409900e-03,0.000707812
-1.409800e-03,0.000745312
-1.409700e-03,0.000820313
-1.409600e-03,0.000804688
-1.409500e-03,0.000871875
-1.409400e-03,0.000754688
-1.409300e-03,0.00085625
-1.409200e-03,0.000840625
-1.409100e-03,0.00085
-1.409000e-03,0.0008625
-1.408900e-03,0.000925
-1.408800e-03,0.00076875
-1.408700e-03,0.000882813
-1.408600e-03,0.000901563
-1.408500e-03,0.000967188
-1.408400e-03,0.000785938
-1.408300e-03,0.000832813
-1.408200e-03,0.000857813
-1.408100e-03,0.000753125
-1.408000e-03,0.000970313
-1.407900e-03,0.000940625
-1.407800e-03,0.000996875
-1.407700e-03,0.000929688
-1.407600e-03,0.00103125
-1.407500e-03,0.00100156
-1.407400e-03,0.00108281
-1.407300e-03,0.000928125
-1.407200e-03,0.00095625
-1.407100e-03,0.000910938
-1.407000e-03,0.000929688
-1.406900e-03,0.000996875
-1.406800e-03,0.000928125
-1.406700e-03,0.000954688
-1.406600e-03,0.00102969
-1.406500e-03,0.00099375
-1.406400e-03,0.000945313
-1.406300e-03,0.00100313
-1.406200e-03,0.000959375
-1.406100e-03,0.000945313
-1.406000e-03,0.00104375
-1.405900e-03,0.0009375
-1.405800e-03,0.00101719
-1.405700e-03,0.000998437
-1.405600e-03,0.00104688
-1.405500e-03,0.00110625
-1.405400e-03,0.00105625
-1.405300e-03,0.00111094
-1.405200e-03,0.00108438
-1.405100e-03,0.00103125
-1.405000e-03,0.00115313
-1.404900e-03,0.00115781
-1.404800e-03,0.00114219
-1.404700e-03,0.00108281
-1.404600e-03,0.00112813
-1.404500e-03,0.00114844
-1.404400e-03,0.00112188
-1.404300e-03,0.00105156
-1.404200e-03,0.0011125
-1.404100e-03,0.00104844
-1.404000e-03,0.00117813
-1.403900e-03,0.00104063
-1.403800e-03,0.00119375
-1.403700e-03,0.00116875
-1.403600e-03,0.00115625
-1.403500e-03,0.00114531
-1.403400e-03,0.00110781
-1.403300e-03,0.00111563
-1.403200e-03,0.00121563
-1.403100e-03,0.00112813
-1.403000e-03,0.00122344
-1.402900e-03,0.00124062
-1.402800e-03,0.00126094
-1.402700e-03,0.00124531
-1.402600e-03,0.00115781
-1.402500e-03,0.00121094
-1.402400e-03,0.00113281
-1.402300e-03,0.00123906
-1.402200e-03,0.00126563
-1.402100e-03,0.00136406
-1.402000e-03,0.00122813
-1.401900e-03,0.00127344
-1.401800e-03,0.00132656
-1.401700e-03,0.00119844
-1.401600e-03,0.00121563
-1.401500e-03,0.00128281
-1.401400e-03,0.00132656
-1.401300e-03,0.0013125
-1.401200e-03,0.00120156
-1.401100e-03,0.00135
-1.401000e-03,0.00127656
-1.400900e-03,0.00119063
-1.400800e-03,0.00126094
-1.400700e-03,0.00139844
-1.400600e-03,0.00121875
-1.400500e-03,0.00130781
-1.400400e-03,0.00137344
-1.400300e-03,0.00135625
-1.400200e-03,0.00138594
-1.400100e-03,0.00140156
-1.400000e-03,0.00132188
-1.399900e-03,0.00134063
-1.399800e-03,0.00139844
-1.399700e-03,0.00140625
-1.399600e-03,0.00136563
-1.399500e-03,0.00138594
-1.399400e-03,0.0013375
-1.399300e-03,0.00135625
-1.399200e-03,0.00139063
-1.399100e-03,0.00138594
-1.399000e-03,0.00142969
-1.398900e-03,0.00146406
-1.398800e-03,0.00148281
-1.398700e-03,0.00142969
-1.398600e-03,0.00148281
-1.398500e-03,0.00148438
-1.398400e-03,0.00145938
-1.398300e-03,0.00156094
-1.398200e-03,0.00155156
-1.398100e-03,0.00150781
-1.398000e-03,0.00147188
-1.397900e-03,0.00146094
-1.397800e-03,0.00157813
-1.397700e-03,0.00150313
-1.397600e-03,0.00143906
-1.397500e-03,0.00151406
-1.397400e-03,0.00152344
-1.397300e-03,0.00157188
-1.397200e-03,0.00147188
-1.397100e-03,0.00150313
-1.397000e-03,0.00155469
-1.396900e-03,0.00162813
-1.396800e-03,0.00157344
-1.396700e-03,0.00162813
-1.396600e-03,0.00160156
-1.396500e-03,0.00155156
-1.396400e-03,0.00163906
-1.396300e-03,0.00147969
-1.396200e-03,0.00161094
-1.396100e-03,0.00150469
-1.396000e-03,0.00161406
-1.395900e-03,0.00157969
-1.395800e-03,0.00160156
-1.395700e-03,0.0016375
-1.395600e-03,0.0016375
-1.395500e-03,0.00159063
-1.395400e-03,0.00160781
-1.395300e-03,0.00170469
-1.395200e-03,0.00160156
-1.395100e-03,0.0016375
-1.395000e-03,0.00170156
-1.394900e-03,0.00164375
-1.394800e-03,0.00174219
-1.394700e-03,0.00171563
-1.394600e-03,0.0016875
-1.394500e-03,0.00165938
-1.394400e-03,0.00169688
-1.394300e-03,0.00169375
-1.394200e-03,0.00165156
-1.394100e-03,0.00170625
-1.394000e-03,0.0016125
-1.393900e-03,0.00176563
-1.393800e-03,0.00159531
-1.393700e-03,0.00176094
-1.393600e-03,0.00176406
-1.393500e-03,0.00171875
-1.393400e-03,0.00170469
-1.393300e-03,0.00177188
-1.393200e-03,0.00170469
-1.393100e-03,0.00173906
-1.393000e-03,0.00166094
-1.392900e-03,0.00178906
-1.392800e-03,0.00182031
-1.392700e-03,0.00174375
-1.392600e-03,0.00177031
-1.392500e-03,0.00176563
-1.392400e-03,0.00170156
-1.392300e-03,0.00179688
-1.392200e-03,0.00185625
-1.392100e-03,0.00180313
-1.392000e-03,0.00181875
-1.391900e-03,0.00185469
-1.391800e-03,0.00172656
-1.391700e-03,0.00176563
-1.391600e-03,0.00188906
-1.391500e-03,0.00184063
-1.391400e-03,0.00177031
-1.391300e-03,0.00179063
-1.391200e-03,0.00171406
-1.391100e-03,0.00183281
-1.391000e-03,0.00186719
-1.390900e-03,0.00185313
-1.390800e-03,0.00186719
-1.390700e-03,0.00184531
-1.390600e-03,0.00195781
-1.390500e-03,0.0020125
-1.390400e-03,0.0019375
-1.390300e-03,0.00193125
-1.390200e-03,0.00200469
-1.390100e-03,0.00189063
-1.390000e-03,0.00189844
-1.389900e-03,0.00191719
-1.389800e-03,0.00189844
-1.389700e-03,0.00196094
-1.389600e-03,0.00194688
-1.389500e-03,0.00199531
-1.389400e-03,0.00196719
-1.389300e-03,0.00198281
-1.389200e-03,0.00198438
-1.389100e-03,0.00199531
-1.389000e-03,0.00199531
-1.388900e-03,0.00196406
-1.388800e-03,0.00194531
-1.388700e-03,0.00197813
-1.388600e-03,0.00194219
-1.388500e-03,0.00195469
-1.388400e-03,0.00202812
-1.388300e-03,0.00205
-1.388200e-03,0.00194688
-1.388100e-03,0.00201875
-1.388000e-03,0.00209219
-1.387900e-03,0.00200938
-1.387800e-03,0.00201406
-1.387700e-03,0.00205
-1.387600e-03,0.00198125
-1.387500e-03,0.00210781
-1.387400e-03,0.00212188
-1.387300e-03,0.00202656
-1.387200e-03,0.00212969
-1.387100e-03,0.00204844
-1.387000e-03,0.00212344
-1.386900e-03,0.00205625
-1.386800e-03,0.00217031
-1.386700e-03,0.00205
-1.386600e-03,0.00212031
-1.386500e-03,0.00198281
-1.386400e-03,0.0021125
-1.386300e-03,0.00215625
-1.386200e-03,0.00211563
-1.386100e-03,0.00216719
-1.386000e-03,0.00214375
-1.385900e-03,0.00217656
-1.385800e-03,0.00217656
-1.385700e-03,0.00224531
-1.385600e-03,0.00214531
-1.385500e-03,0.00213281
-1.385400e-03,0.00215625
-1.385300e-03,0.00213125
-1.385200e-03,0.00221719
-1.385100e-03,0.00224219
-1.385000e-03,0.00221719
-1.384900e-03,0.00222187
-1.384800e-03,0.00223125
-1.384700e-03,0.00224375
-1.384600e-03,0.00226563
-1.384500e-03,0.002275
-1.384400e-03,0.00220469
-1.384300e-03,0.0022
-1.384200e-03,0.00228281
-1.384100e-03,0.00220625
-1.384000e-03,0.00225469
-1.383900e-03,0.00229063
-1.383800e-03,0.0022375
-1.383700e-03,0.00224375
-1.383600e-03,0.00228125
-1.383500e-03,0.00227344
-1.383400e-03,0.00231719
-1.383300e-03,0.00237813
-1.383200e-03,0.00222656
-1.383100e-03,0.00232969
-1.383000e-03,0.00227344
-1.382900e-03,0.00235781
-1.382800e-03,0.00241563
-1.382700e-03,0.00242344
-1.382600e-03,0.00239844
-1.382500e-03,0.00228594
-1.382400e-03,0.0023125
-1.382300e-03,0.00237656
-1.382200e-03,0.00232188
-1.382100e-03,0.002425
-1.382000e-03,0.00235
-1.381900e-03,0.00244375
-1.381800e-03,0.002375
-1.381700e-03,0.00241563
-1.381600e-03,0.00233281
-1.381500e-03,0.00235781
-1.381400e-03,0.00238438
-1.381300e-03,0.00250781
-1.381200e-03,0.00240781
-1.381100e-03,0.00232812
-1.381000e-03,0.00250938
-1.380900e-03,0.00235313
-1.380800e-03,0.00236563
-1.380700e-03,0.00240938
-1.380600e-03,0.00247969
-1.380500e-03,0.00249219
-1.380400e-03,0.00251563
-1.380300e-03,0.00241875
-1.380200e-03,0.00244063
-1.380100e-03,0.00251719
-1.380000e-03,0.00247031
-1.379900e-03,0.0025
-1.379800e-03,0.00245625
-1.379700e-03,0.0025125
-1.379600e-03,0.00245
-1.379500e-03,0.00246719
-1.379400e-03,0.00243437
-1.379300e-03,0.00242813
-1.379200e-03,0.00248281
-1.379100e-03,0.00256094
-1.379000e-03,0.00251094
-1.378900e-03,0.00241563
-1.378800e-03,0.00249375
-1.378700e-03,0.00249844
-1.378600e-03,0.0025
-1.378500e-03,0.00247188
-1.378400e-03,0.0025125
-1.378300e-03,0.00257813
-1.378200e-03,0.00252031
-1.378100e-03,0.00258281
-1.378000e-03,0.00257344
-1.377900e-03,0.00240781
-1.377800e-03,0.00254531
-1.377700e-03,0.00266094
-1.377600e-03,0.00263125
-1.377500e-03,0.00256875
-1.377400e-03,0.00258438
-1.377300e-03,0.00264063
-1.377200e-03,0.00255
-1.377100e-03,0.00255156
-1.377000e-03,0.00254844
-1.376900e-03,0.00264531
-1.376800e-03,0.00257031
-1.376700e-03,0.00259219
-1.376600e-03,0.00262031
-1.376500e-03,0.0025
-1.376400e-03,0.00247188
-1.376300e-03,0.00263437
-1.376200e-03,0.00260156
-1.376100e-03,0.00269844
-1.376000e-03,0.00270937
-1.375900e-03,0.00279375
-1.375800e-03,0.00264531
-1.375700e-03,0.00260781
-1.375600e-03,0.00273281
-1.375500e-03,0.00261563
-1.375400e-03,0.0027
-1.375300e-03,0.00266719
-1.375200e-03,0.00258438
-1.375100e-03,0.00278281
-1.375000e-03,0.00274063
-1.374900e-03,0.00276875
-1.374800e-03,0.00263125
-1.374700e-03,0.0026625
-1.374600e-03,0.00268594
-1.374500e-03,0.00264844
-1.374400e-03,0.00265469
-1.374300e-03,0.00264687
-1.374200e-03,0.00274219
-1.374100e-03,0.00272656
-1.374000e-03,0.0028
-1.373900e-03,0.00268594
-1.373800e-03,0.0026625
-1.373700e-03,0.00279063
-1.373600e-03,0.00279688
-1.373500e-03,0.00277188
-1.373400e-03,0.00265781
-1.373300e-03,0.00280625
-1.373200e-03,0.00279219
-1.373100e-03,0.00277969
-1.373000e-03,0.00282188
-1.372900e-03,0.00282188
-1.372800e-03,0.00277344
-1.372700e-03,0.00272344
-1.372600e-03,0.00277813
-1.372500e-03,0.00277188
-1.372400e-03,0.00269844
-1.372300e-03,0.002825
-1.372200e-03,0.00272188
-1.372100e-03,0.002825
-1.372000e-03,0.00275781
-1.371900e-03,0.00277344
-1.371800e-03,0.00278594
-1.371700e-03,0.00281719
-1.371600e-03,0.00288438
-1.371500e-03,0.002925
-1.371400e-03,0.00280469
-1.371300e-03,0.00282188
-1.371200e-03,0.00275
-1.371100e-03,0.00278906
-1.371000e-03,0.00290625
-1.370900e-03,0.00285781
-1.370800e-03,0.00280469
-1.370700e-03,0.00295625
-1.370600e-03,0.00289062
-1.370500e-03,0.00289375
-1.370400e-03,0.0029375
-1.370300e-03,0.00280313
-1.370200e-03,0.00285469
-1.370100e-03,0.0027875
-1.370000e-03,0.00297188
-1.369900e-03,0.00284531
-1.369800e-03,0.00285781
-1.369700e-03,0.00289375
-1.369600e-03,0.00295
-1.369500e-03,0.00278594
-1.369400e-03,0.00288281
-1.369300e-03,0.00295
-1.369200e-03,0.00277188
-1.369100e-03,0.00289688
-1.369000e-03,0.0029625
-1.368900e-03,0.00290469
-1.368800e-03,0.00307813
-1.368700e-03,0.00297031
-1.368600e-03,0.00294688
-1.368500e-03,0.00304531
-1.368400e-03,0.00299375
-1.368300e-03,0.00296719
-1.368200e-03,0.00291094
-1.368100e-03,0.00287813
-1.368000e-03,0.00295625
-1.367900e-03,0.00287188
-1.367800e-03,0.00302031
-1.367700e-03,0.00290781
-1.367600e-03,0.00292969
-1.367500e-03,0.00290781
-1.367400e-03,0.00297656
-1.367300e-03,0.00292813
-1.367200e-03,0.00292656
-1.367100e-03,0.00297969
-1.367000e-03,0.00302188
-1.366900e-03,0.00296875
-1.366800e-03,0.00299844
-1.366700e-03,0.00293281
-1.366600e-03,0.00294219
-1.366500e-03,0.00301875
-1.366400e-03,0.00306563
-1.366300e-03,0.0029375
-1.366200e-03,0.00307813
-1.366100e-03,0.00306406
-1.366000e-03,0.00308281
-1.365900e-03,0.00303906
-1.365800e-03,0.00296719
-1.365700e-03,0.00304375
-1.365600e-03,0.00309844
-1.365500e-03,0.00302969
-1.365400e-03,0.00303906
-1.365300e-03,0.003125
-1.365200e-03,0.00295781
-1.365100e-03,0.00309063
-1.365000e-03,0.00299687
-1.364900e-03,0.00301719
-1.364800e-03,0.00312344
-1.364700e-03,0.00299219
-1.364600e-03,0.00313281
-1.364500e-03,0.00305156
-1.364400e-03,0.00310781
-1.364300e-03,0.00305625
-1.364200e-03,0.00317969
-1.364100e-03,0.00306719
-1.364000e-03,0.00306094
-1.363900e-03,0.00310938
-1.363800e-03,0.00315313
-1.363700e-03,0.00316406
-1.363600e-03,0.003075
-1.363500e-03,0.00315781
-1.363400e-03,0.00300781
-1.363300e-03,0.00308906
-1.363200e-03,0.00311406
-1.363100e-03,0.00304063
-1.363000e-03,0.00308125
-1.362900e-03,0.00322969
-1.362800e-03,0.00308594
-1.362700e-03,0.003075
-1.362600e-03,0.00318281
-1.362500e-03,0.00307187
-1.362400e-03,0.00314375
-1.362300e-03,0.00319844
-1.362200e-03,0.00318906
-1.362100e-03,0.00323906
-1.362000e-03,0.00304063
-1.361900e-03,0.00316406
-1.361800e-03,0.00325625
-1.361700e-03,0.00314688
-1.361600e-03,0.00320937
-1.361500e-03,0.00315469
-1.361400e-03,0.00308594
-1.361300e-03,0.00321875
-1.361200e-03,0.00313438
-1.361100e-03,0.00321719
-1.361000e-03,0.00315469
-1.360900e-03,0.00318125
-1.360800e-03,0.00318906
-1.360700e-03,0.00325469
-1.360600e-03,0.00324531
-1.360500e-03,0.00315469
-1.360400e-03,0.00312344
-1.360300e-03,0.00313906
-1.360200e-03,0.00317656
-1.360100e-03,0.00317344
-1.360000e-03,0.00322656
-1.359900e-03,0.00322969
-1.359800e-03,0.00315313
-1.359700e-03,0.00327344
-1.359600e-03,0.0032625
-1.359500e-03,0.00331406
-1.359400e-03,0.00316719
-1.359300e-03,0.00322031
-1.359200e-03,0.00324531
-1.359100e-03,0.00319844
-1.359000e-03,0.00320625
-1.358900e-03,0.00321563
-1.358800e-03,0.00326875
-1.358700e-03,0.00311719
-1.358600e-03,0.00323125
-1.358500e-03,0.00315313
-1.358400e-03,0.00325938
-1.358300e-03,0.0032125
-1.358200e-03,0.00328437
-1.358100e-03,0.00320469
-1.358000e-03,0.00317812
-1.357900e-03,0.0032
-1.357800e-03,0.00324219
-1.357700e-03,0.00329219
-1.357600e-03,0.00315313
-1.357500e-03,0.00326094
-1.357400e-03,0.00315469
-1.357300e-03,0.0031375
-1.357200e-03,0.00324063
-1.357100e-03,0.00320937
-1.357000e-03,0.00331094
-1.356900e-03,0.00325
-1.356800e-03,0.0032625
-1.356700e-03,0.00325781
-1.356600e-03,0.00320781
-1.356500e-03,0.00336563
-1.356400e-03,0.00327656
-1.356300e-03,0.00335156
-1.356200e-03,0.00320937
-1.356100e-03,0.00320313
-1.356000e-03,0.00326719
-1.355900e-03,0.00333125
-1.355800e-03,0.00321406
-1.355700e-03,0.00336563
-1.355600e-03,0.00327656
-1.355500e-03,0.00335156
-1.355400e-03,0.00333125
-1.355300e-03,0.0033625
-1.355200e-03,0.00327656
-1.355100e-03,0.00328906
-1.355000e-03,0.00320937
-1.354900e-03,0.00324219
-1.354800e-03,0.0032
-1.354700e-03,0.00331094
-1.354600e-03,0.00330625
-1.354500e-03,0.00327969
-1.354400e-03,0.00325312
-1.354300e-03,0.00334844
-1.354200e-03,0.00333594
-1.354100e-03,0.00330469
-1.354000e-03,0.00340469
-1.353900e-03,0.00332969
-1.353800e-03,0.00320781
-1.353700e-03,0.00321719
-1.353600e-03,0.0033375
-1.353500e-03,0.00323281
-1.353400e-03,0.00325156
-1.353300e-03,0.00326563
-1.353200e-03,0.00329531
-1.353100e-03,0.00337813
-1.353000e-03,0.00327188
-1.352900e-03,0.003375
-1.352800e-03,0.00329531
-1.352700e-03,0.00337969
-1.352600e-03,0.00331875
-1.352500e-03,0.00329531
-1.352400e-03,0.00335781
-1.352300e-03,0.00331406
-1.352200e-03,0.00331562
-1.352100e-03,0.00330938
-1.352000e-03,0.003275
-1.351900e-03,0.00334844
-1.351800e-03,0.00325156
-1.351700e-03,0.00346719
-1.351600e-03,0.00323281
-1.351500e-03,0.00334531
-1.351400e-03,0.00328594
-1.351300e-03,0.00327188
-1.351200e-03,0.00326719
-1.351100e-03,0.00328281
-1.351000e-03,0.00323281
-1.350900e-03,0.00332813
-1.350800e-03,0.00325
-1.350700e-03,0.00340313
-1.350600e-03,0.0033375
-1.350500e-03,0.00325781
-1.350400e-03,0.00337031
-1.350300e-03,0.00340469
-1.350200e-03,0.00322969
-1.350100e-03,0.00326719
-1.350000e-03,0.00328594
-1.349900e-03,0.00322031
-1.349800e-03,0.00329219
-1.349700e-03,0.00332344
-1.349600e-03,0.00336563
-1.349500e-03,0.003325
-1.349400e-03,0.00328906
-1.349300e-03,0.00328594
-1.349200e-03,0.00330156
-1.349100e-03,0.00332813
-1.349000e-03,0.00332188
-1.348900e-03,0.00334531
-1.348800e-03,0.00328594
-1.348700e-03,0.00327656
-1.348600e-03,0.00324063
-1.348500e-03,0.00338281
-1.348400e-03,0.00337031
-1.348300e-03,0.00323281
-1.348200e-03,0.00330156
-1.348100e-03,0.00332188
-1.348000e-03,0.00329531
-1.347900e-03,0.00334375
-1.347800e-03,0.00332344
-1.347700e-03,0.00334375
-1.347600e-03,0.00321719
-1.347500e-03,0.00335781
-1.347400e-03,0.00339062
-1.347300e-03,0.00328906
-1.347200e-03,0.00342969
-1.347100e-03,0.00323281
-1.347000e-03,0.00324219
-1.346900e-03,0.00324219
-1.346800e-03,0.00324688
-1.346700e-03,0.00325938
-1.346600e-03,0.00333125
-1.346500e-03,0.00316406
-1.346400e-03,0.00330156
-1.346300e-03,0.0032875
-1.346200e-03,0.00329688
-1.346100e-03,0.00327656
-1.346000e-03,0.00326875
-1.345900e-03,0.00333125
-1.345800e-03,0.00325469
-1.345700e-03,0.0032875
-1.345600e-03,0.00333438
-1.345500e-03,0.00320781
-1.345400e-03,0.00323438
-1.345300e-03,0.00322969
-1.345200e-03,0.00327188
-1.345100e-03,0.00327188
-1.345000e-03,0.003275
-1.344900e-03,0.00327188
-1.344800e-03,0.00329063
-1.344700e-03,0.00328437
-1.344600e-03,0.003275
-1.344500e-03,0.00323594
-1.344400e-03,0.00322656
-1.344300e-03,0.00336875
-1.344200e-03,0.00330313
-1.344100e-03,0.00325156
-1.344000e-03,0.00330313
-1.343900e-03,0.00331406
-1.343800e-03,0.00322813
-1.343700e-03,0.00334063
-1.343600e-03,0.00316406
-1.343500e-03,0.00325469
-1.343400e-03,0.00323281
-1.343300e-03,0.00324219
-1.343200e-03,0.00337813
-1.343100e-03,0.00319219
-1.343000e-03,0.00323281
-1.342900e-03,0.00315781
-1.342800e-03,0.00322656
-1.342700e-03,0.00319531
-1.342600e-03,0.00324844
-1.342500e-03,0.00312656
-1.342400e-03,0.00312813
-1.342300e-03,0.00318281
-1.342200e-03,0.00320156
-1.342100e-03,0.00320781
-1.342000e-03,0.00331875
-1.341900e-03,0.00324688
-1.341800e-03,0.00319375
-1.341700e-03,0.00315313
-1.341600e-03,0.00314844
-1.341500e-03,0.00323906
-1.341400e-03,0.00316406
-1.341300e-03,0.00316406
-1.341200e-03,0.00319375
-1.341100e-03,0.00314063
-1.341000e-03,0.003175
-1.340900e-03,0.00316406
-1.340800e-03,0.00309375
-1.340700e-03,0.00305781
-1.340600e-03,0.00312031
-1.340500e-03,0.00315781
-1.340400e-03,0.00314063
-1.340300e-03,0.00315938
-1.340200e-03,0.00320781
-1.340100e-03,0.00311563
-1.340000e-03,0.0031
-1.339900e-03,0.00303281
-1.339800e-03,0.00313438
-1.339700e-03,0.00315781
-1.339600e-03,0.0030125
-1.339500e-03,0.00312656
-1.339400e-03,0.00315938
-1.339300e-03,0.00318281
-1.339200e-03,0.00324063
-1.339100e-03,0.00308906
-1.339000e-03,0.00315
-1.338900e-03,0.00316094
-1.338800e-03,0.00312656
-1.338700e-03,0.0031125
-1.338600e-03,0.00305625
-1.338500e-03,0.00306094
-1.338400e-03,0.00316406
-1.338300e-03,0.00312344
-1.338200e-03,0.00314844
-1.338100e-03,0.00309219
-1.338000e-03,0.00305469
-1.337900e-03,0.00310156
-1.337800e-03,0.00301563
-1.337700e-03,0.0030875
-1.337600e-03,0.00306094
-1.337500e-03,0.00307187
-1.337400e-03,0.00308906
-1.337300e-03,0.0031125
-1.337200e-03,0.00312188
-1.337100e-03,0.00296719
-1.337000e-03,0.00316094
-1.336900e-03,0.00306719
-1.336800e-03,0.00303906
-1.336700e-03,0.00306094
-1.336600e-03,0.00304531
-1.336500e-03,0.00300469
-1.336400e-03,0.00305
-1.336300e-03,0.00309844
-1.336200e-03,0.0030625
-1.336100e-03,0.00295
-1.336000e-03,0.003075
-1.335900e-03,0.00295313
-1.335800e-03,0.00298281
-1.335700e-03,0.00298594
-1.335600e-03,0.00307187
-1.335500e-03,0.00305313
-1.335400e-03,0.00296562
-1.335300e-03,0.00296406
-1.335200e-03,0.00294219
-1.335100e-03,0.00295781
-1.335000e-03,0.00305938
-1.334900e-03,0.00300781
-1.334800e-03,0.00304375
-1.334700e-03,0.00299219
-1.334600e-03,0.00302656
-1.334500e-03,0.003025
-1.334400e-03,0.00292656
-1.334300e-03,0.00294219
-1.334200e-03,0.00289844
-1.334100e-03,0.00292813
-1.334000e-03,0.00298594
-1.333900e-03,0.00302656
-1.333800e-03,0.00293281
-1.333700e-03,0.00283281
-1.333600e-03,0.0029125
-1.333500e-03,0.00297031
-1.333400e-03,0.00296562
-1.333300e-03,0.0029625
-1.333200e-03,0.00295938
-1.333100e-03,0.00289062
-1.333000e-03,0.0029125
-1.332900e-03,0.00290938
-1.332800e-03,0.00293281
-1.332700e-03,0.00299375
-1.332600e-03,0.00299844
-1.332500e-03,0.00289219
-1.332400e-03,0.00282188
-1.332300e-03,0.00278281
-1.332200e-03,0.0029875
-1.332100e-03,0.00291875
-1.332000e-03,0.00286563
-1.331900e-03,0.00273125
-1.331800e-03,0.00283906
-1.331700e-03,0.00287188
-1.331600e-03,0.00292813
-1.331500e-03,0.00285156
-1.331400e-03,0.00279531
-1.331300e-03,0.00283438
-1.331200e-03,0.00282813
-1.331100e-03,0.00286719
-1.331000e-03,0.00284531
-1.330900e-03,0.00293438
-1.330800e-03,0.00273281
-1.330700e-03,0.00291406
-1.330600e-03,0.00273281
-1.330500e-03,0.00284844
-1.330400e-03,0.00286563
-1.330300e-03,0.00284219
-1.330200e-03,0.00284531
-1.330100e-03,0.00277344
-1.330000e-03,0.00275312
-1.329900e-03,0.00277656
-1.329800e-03,0.00288594
-1.329700e-03,0.00285156
-1.329600e-03,0.00283125
-1.329500e-03,0.00284219
-1.329400e-03,0.00274531
-1.329300e-03,0.00271406
-1.329200e-03,0.00280469
-1.329100e-03,0.00265313
-1.329000e-03,0.00271875
-1.328900e-03,0.00273594
-1.328800e-03,0.00265156
-1.328700e-03,0.00276875
-1.328600e-03,0.00270625
-1.328500e-03,0.0028
-1.328400e-03,0.00279531
-1.328300e-03,0.00267969
-1.328200e-03,0.00271406
-1.328100e-03,0.00262656
-1.328000e-03,0.00272813
-1.327900e-03,0.00271719
-1.327800e-03,0.00275781
-1.327700e-03,0.00270937
-1.327600e-03,0.00275781
-1.327500e-03,0.00267188
-1.327400e-03,0.00257813
-1.327300e-03,0.00277656
-1.327200e-03,0.00277188
-1.327100e-03,0.00275
-1.327000e-03,0.00275938
-1.326900e-03,0.00267031
-1.326800e-03,0.00267812
-1.326700e-03,0.00274375
-1.326600e-03,0.00271406
-1.326500e-03,0.00263437
-1.326400e-03,0.00265781
-1.326300e-03,0.00267031
-1.326200e-03,0.00266719
-1.326100e-03,0.00274375
-1.326000e-03,0.00266563
-1.325900e-03,0.0026875
-1.325800e-03,0.00266094
-1.325700e-03,0.00260469
-1.325600e-03,0.00263437
-1.325500e-03,0.0026375
-1.325400e-03,0.0026875
-1.325300e-03,0.00264063
-1.325200e-03,0.00265156
-1.325100e-03,0.00258438
-1.325000e-03,0.00266094
-1.324900e-03,0.00263437
-1.324800e-03,0.00262656
-1.324700e-03,0.00249531
-1.324600e-03,0.00255156
-1.324500e-03,0.0024875
-1.324400e-03,0.00268594
-1.324300e-03,0.002475
-1.324200e-03,0.00253281
-1.324100e-03,0.00259844
-1.324000e-03,0.00257813
-1.323900e-03,0.00270313
-1.323800e-03,0.00261406
-1.323700e-03,0.00257031
-1.323600e-03,0.00256563
-1.323500e-03,0.00252188
-1.323400e-03,0.00256875
-1.323300e-03,0.00254688
-1.323200e-03,0.00250156
-1.323100e-03,0.0025625
-1.323000e-03,0.00240781
-1.322900e-03,0.00254531
-1.322800e-03,0.00246562
-1.322700e-03,0.00245781
-1.322600e-03,0.00247031
-1.322500e-03,0.00243594
-1.322400e-03,0.00251875
-1.322300e-03,0.00250313
-1.322200e-03,0.00252031
-1.322100e-03,0.00249219
-1.322000e-03,0.00247188
-1.321900e-03,0.00258438
-1.321800e-03,0.00256719
-1.321700e-03,0.00247656
-1.321600e-03,0.00257187
-1.321500e-03,0.00242344
-1.321400e-03,0.00254844
-1.321300e-03,0.00245625
-1.321200e-03,0.0024625
-1.321100e-03,0.00243125
-1.321000e-03,0.00236094
-1.320900e-03,0.00241406
-1.320800e-03,0.00245469
-1.320700e-03,0.00245781
-1.320600e-03,0.00252656
-1.320500e-03,0.00241875
-1.320400e-03,0.00238125
-1.320300e-03,0.00249219
-1.320200e-03,0.00252656
-1.320100e-03,0.00251406
-1.320000e-03,0.00240469
-1.319900e-03,0.00242031
-1.319800e-03,0.00242031
-1.319700e-03,0.00241406
-1.319600e-03,0.00243437
-1.319500e-03,0.00237813
-1.319400e-03,0.00239844
-1.319300e-03,0.00235313
-1.319200e-03,0.00240469
-1.319100e-03,0.00232656
-1.319000e-03,0.00241719
-1.318900e-03,0.0023125
-1.318800e-03,0.00239531
-1.318700e-03,0.00229375
-1.318600e-03,0.00247031
-1.318500e-03,0.00228594
-1.318400e-03,0.00234063
-1.318300e-03,0.00235937
-1.318200e-03,0.00238125
-1.318100e-03,0.0023875
-1.318000e-03,0.00232188
-1.317900e-03,0.00233125
-1.317800e-03,0.00233594
-1.317700e-03,0.00236563
-1.317600e-03,0.00233281
-1.317500e-03,0.0024125
-1.317400e-03,0.00224531
-1.317300e-03,0.00233906
-1.317200e-03,0.00238594
-1.317100e-03,0.00229063
-1.317000e-03,0.00233594
-1.316900e-03,0.00228125
-1.316800e-03,0.00233906
-1.316700e-03,0.00232188
-1.316600e-03,0.00233281
-1.316500e-03,0.00232656
-1.316400e-03,0.0023875
-1.316300e-03,0.00224062
-1.316200e-03,0.00228437
-1.316100e-03,0.00223438
-1.316000e-03,0.00231875
-1.315900e-03,0.00227813
-1.315800e-03,0.00237188
-1.315700e-03,0.00231562
-1.315600e-03,0.00224219
-1.315500e-03,0.00226875
-1.315400e-03,0.00228906
-1.315300e-03,0.00232656
-1.315200e-03,0.00227031
-1.315100e-03,0.00220781
-1.315000e-03,0.00222656
-1.314900e-03,0.00210156
-1.314800e-03,0.00225938
-1.314700e-03,0.00221719
-1.314600e-03,0.0023125
-1.314500e-03,0.00227344
-1.314400e-03,0.0022125
-1.314300e-03,0.00217656
-1.314200e-03,0.00216094
-1.314100e-03,0.00225938
-1.314000e-03,0.00220313
-1.313900e-03,0.00226563
-1.313800e-03,0.00216719
-1.313700e-03,0.00224375
-1.313600e-03,0.00213125
-1.313500e-03,0.00216406
-1.313400e-03,0.00212656
-1.313300e-03,0.00215625
-1.313200e-03,0.00218594
-1.313100e-03,0.00226563
-1.313000e-03,0.00223125
-1.312900e-03,0.00225312
-1.312800e-03,0.00221094
-1.312700e-03,0.00220781
-1.312600e-03,0.0022
-1.312500e-03,0.00212031
-1.312400e-03,0.00228906
-1.312300e-03,0.00223125
-1.312200e-03,0.00214844
-1.312100e-03,0.00219063
-1.312000e-03,0.0021125
-1.311900e-03,0.00214063
-1.311800e-03,0.00212188
-1.311700e-03,0.00225625
-1.311600e-03,0.002175
-1.311500e-03,0.00210781
-1.311400e-03,0.00215156
-1.311300e-03,0.002225
-1.311200e-03,0.00215781
-1.311100e-03,0.00222344
-1.311000e-03,0.00207344
-1.310900e-03,0.00210312
-1.310800e-03,0.00210938
-1.310700e-03,0.00210938
-1.310600e-03,0.00201406
-1.310500e-03,0.00204375
-1.310400e-03,0.0021125
-1.310300e-03,0.00208594
-1.310200e-03,0.00213125
-1.310100e-03,0.00223125
-1.310000e-03,0.00202344
-1.309900e-03,0.00194063
-1.309800e-03,0.00210312
-1.309700e-03,0.00214531
-1.309600e-03,0.00210469
-1.309500e-03,0.00207969
-1.309400e-03,0.00212031
-1.309300e-03,0.00209844
-1.309200e-03,0.00196719
-1.309100e-03,0.00205469
-1.309000e-03,0.0020125
-1.308900e-03,0.0019625
-1.308800e-03,0.00199531
-1.308700e-03,0.00202031
-1.308600e-03,0.00206875
-1.308500e-03,0.00203906
-1.308400e-03,0.00201719
-1.308300e-03,0.0019375
-1.308200e-03,0.00200938
-1.308100e-03,0.00195469
-1.308000e-03,0.00193281
-1.307900e-03,0.00198438
-1.307800e-03,0.00200156
-1.307700e-03,0.0020125
-1.307600e-03,0.00197344
-1.307500e-03,0.00197188
-1.307400e-03,0.00202344
-1.307300e-03,0.00197813
-1.307200e-03,0.00194688
-1.307100e-03,0.00198125
-1.307000e-03,0.00193125
-1.306900e-03,0.00202188
-1.306800e-03,0.00182188
-1.306700e-03,0.00196094
-1.306600e-03,0.00196094
-1.306500e-03,0.00194531
-1.306400e-03,0.001975
-1.306300e-03,0.00191563
-1.306200e-03,0.00195
-1.306100e-03,0.00195625
-1.306000e-03,0.00196094
-1.305900e-03,0.00196562
-1.305800e-03,0.00190781
-1.305700e-03,0.00183594
-1.305600e-03,0.00190313
-1.305500e-03,0.00182969
-1.305400e-03,0.0019
-1.305300e-03,0.00183594
-1.305200e-03,0.00195312
-1.305100e-03,0.00181875
-1.305000e-03,0.00184063
-1.304900e-03,0.00194375
-1.304800e-03,0.00189219
-1.304700e-03,0.00197656
-1.304600e-03,0.00189531
-1.304500e-03,0.00191406
-1.304400e-03,0.00180313
-1.304300e-03,0.00175625
-1.304200e-03,0.0018875
-1.304100e-03,0.00200625
-1.304000e-03,0.00182813
-1.303900e-03,0.00186094
-1.303800e-03,0.00185625
-1.303700e-03,0.0017625
-1.303600e-03,0.00177969
-1.303500e-03,0.00169375
-1.303400e-03,0.00181719
-1.303300e-03,0.0018125
-1.303200e-03,0.00171719
-1.303100e-03,0.00180469
-1.303000e-03,0.00184687
-1.302900e-03,0.00173438
-1.302800e-03,0.00176563
-1.302700e-03,0.00176563
-1.302600e-03,0.00178438
-1.302500e-03,0.00177969
-1.302400e-03,0.00175625
-1.302300e-03,0.00171563
-1.302200e-03,0.00181094
-1.302100e-03,0.00172344
-1.302000e-03,0.0016875
-1.301900e-03,0.0017375
-1.301800e-03,0.00177813
-1.301700e-03,0.00177344
-1.301600e-03,0.00173125
-1.301500e-03,0.00164844
-1.301400e-03,0.00174375
-1.301300e-03,0.00178906
-1.301200e-03,0.00173438
-1.301100e-03,0.00171719
-1.301000e-03,0.00169063
-1.300900e-03,0.00165781
-1.300800e-03,0.00169688
-1.300700e-03,0.00172031
-1.300600e-03,0.00174375
-1.300500e-03,0.00167969
-1.300400e-03,0.00173281
-1.300300e-03,0.00171094
-1.300200e-03,0.00167813
-1.300100e-03,0.00158438
-1.300000e-03,0.00169688
-1.299900e-03,0.00167344
-1.299800e-03,0.00159531
-1.299700e-03,0.00158438
-1.299600e-03,0.00166719
-1.299500e-03,0.00161563
-1.299400e-03,0.0015625
-1.299300e-03,0.00157656
-1.299200e-03,0.00165469
-1.299100e-03,0.0015375
-1.299000e-03,0.00157656
-1.298900e-03,0.00157656
-1.298800e-03,0.0015625
-1.298700e-03,0.0017
-1.298600e-03,0.00164219
-1.298500e-03,0.00158281
-1.298400e-03,0.00161563
-1.298300e-03,0.00163594
-1.298200e-03,0.00161719
-1.298100e-03,0.00164844
-1.298000e-03,0.00160313
-1.297900e-03,0.00153906
-1.297800e-03,0.00156563
-1.297700e-03,0.0015
-1.297600e-03,0.00152031
-1.297500e-03,0.00148906
-1.297400e-03,0.00146094
-1.297300e-03,0.00151094
-1.297200e-03,0.00150938
-1.297100e-03,0.00152656
-1.297000e-03,0.00156875
-1.296900e-03,0.00143438
-1.296800e-03,0.00144063
-1.296700e-03,0.00148281
-1.296600e-03,0.00148438
-1.296500e-03,0.00138594
-1.296400e-03,0.00145156
-1.296300e-03,0.00142187
-1.296200e-03,0.00145
-1.296100e-03,0.00145156
-1.296000e-03,0.00144219
-1.295900e-03,0.00144063
-1.295800e-03,0.0015
-1.295700e-03,0.00143438
-1.295600e-03,0.00147344
-1.295500e-03,0.00143594
-1.295400e-03,0.00146406
-1.295300e-03,0.0013625
-1.295200e-03,0.00144688
-1.295100e-03,0.00138437
-1.295000e-03,0.00146875
-1.294900e-03,0.00135938
-1.294800e-03,0.00143906
-1.294700e-03,0.00150313
-1.294600e-03,0.001375
-1.294500e-03,0.00144531
-1.294400e-03,0.00138906
-1.294300e-03,0.00126875
-1.294200e-03,0.00141719
-1.294100e-03,0.00134375
-1.294000e-03,0.00129219
-1.293900e-03,0.00129219
-1.293800e-03,0.00138125
-1.293700e-03,0.00132031
-1.293600e-03,0.0013375
-1.293500e-03,0.0013125
-1.293400e-03,0.00135625
-1.293300e-03,0.0013625
-1.293200e-03,0.00133281
-1.293100e-03,0.00125313
-1.293000e-03,0.00133438
-1.292900e-03,0.00134063
-1.292800e-03,0.00134687
-1.292700e-03,0.00127812
-1.292600e-03,0.00124844
-1.292500e-03,0.00129531
-1.292400e-03,0.00126719
-1.292300e-03,0.00126094
-1.292200e-03,0.00122031
-1.292100e-03,0.00123281
-1.292000e-03,0.00120156
-1.291900e-03,0.00125
-1.291800e-03,0.00129375
-1.291700e-03,0.00119063
-1.291600e-03,0.00114531
-1.291500e-03,0.00119063
-1.291400e-03,0.00127969
-1.291300e-03,0.00126094
-1.291200e-03,0.00111875
-1.291100e-03,0.00115781
-1.291000e-03,0.0012375
-1.290900e-03,0.00127969
-1.290800e-03,0.00115938
-1.290700e-03,0.00122656
-1.290600e-03,0.00119063
-1.290500e-03,0.00114844
-1.290400e-03,0.00125625
-1.290300e-03,0.00115156
-1.290200e-03,0.00121094
-1.290100e-03,0.00112656
-1.290000e-03,0.00129688
-1.289900e-03,0.0010625
-1.289800e-03,0.00116094
-1.289700e-03,0.00114688
-1.289600e-03,0.00115
-1.289500e-03,0.00109844
-1.289400e-03,0.00115156
-1.289300e-03,0.00120469
-1.289200e-03,0.00113125
-1.289100e-03,0.00109375
-1.289000e-03,0.00107344
-1.288900e-03,0.00105
-1.288800e-03,0.00115
-1.288700e-03,0.00113594
-1.288600e-03,0.00110781
-1.288500e-03,0.00109531
-1.288400e-03,0.00107813
-1.288300e-03,0.00114531
-1.288200e-03,0.00110313
-1.288100e-03,0.0010125
-1.288000e-03,0.00110938
-1.287900e-03,0.00106719
-1.287800e-03,0.00102656
-1.287700e-03,0.00118438
-1.287600e-03,0.00100781
-1.287500e-03,0.00103125
-1.287400e-03,0.00107656
-1.287300e-03,0.00100313
-1.287200e-03,0.00114219
-1.287100e-03,0.001025
-1.287000e-03,0.000960938
-1.286900e-03,0.000957813
-1.286800e-03,0.00098125
-1.286700e-03,0.00100625
-1.286600e-03,0.00108906
-1.286500e-03,0.000910938
-1.286400e-03,0.00099375
-1.286300e-03,0.000976562
-1.286200e-03,0.000892188
-1.286100e-03,0.000978125
-1.286000e-03,0.000921875
-1.285900e-03,0.000989063
-1.285800e-03,0.00106562
-1.285700e-03,0.00104063
-1.285600e-03,0.000939063
-1.285500e-03,0.00090625
-1.285400e-03,0.000942187
-1.285300e-03,0.000870312
-1.285200e-03,0.000921875
-1.285100e-03,0.000910938
-1.285000e-03,0.000948438
-1.284900e-03,0.00095
-1.284800e-03,0.000873438
-1.284700e-03,0.000973438
-1.284600e-03,0.000901563
-1.284500e-03,0.00091875
-1.284400e-03,0.000842188
-1.284300e-03,0.000809375
-1.284200e-03,0.000973438
-1.284100e-03,0.000825
-1.284000e-03,0.000864063
-1.283900e-03,0.000796875
-1.283800e-03,0.00079375
-1.283700e-03,0.000878125
-1.283600e-03,0.00085
-1.283500e-03,0.000792188
-1.283400e-03,0.000785938
-1.283300e-03,0.000765625
-1.283200e-03,0.000823438
-1.283100e-03,0.000895313
-1.283000e-03,0.0008
-1.282900e-03,0.000829688
-1.282800e-03,0.000835938
-1.282700e-03,0.000878125
-1.282600e-03,0.000801563
-1.282500e-03,0.0007375
-1.282400e-03,0.000698438
-1.282300e-03,0.000810938
-1.282200e-03,0.000625
-1.282100e-03,0.000714063
-1.282000e-03,0.000803125
-1.281900e-03,0.000678125
-1.281800e-03,0.000667188
-1.281700e-03,0.000835938
-1.281600e-03,0.00076875
-1.281500e-03,0.000740625
-1.281400e-03,0.00070625
-1.281300e-03,0.00078125
-1.281200e-03,0.00076875
-1.281100e-03,0.00071875
-1.281000e-03,0.000795313
-1.280900e-03,0.0006625
-1.280800e-03,0.00061875
-1.280700e-03,0.000704688
-1.280600e-03,0.000759375
-1.280500e-03,0.000721875
-1.280400e-03,0.000665625
-1.280300e-03,0.000590625
-1.280200e-03,0.000646875
-1.280100e-03,0.000710937
-1.280000e-03,0.000776563
-1.279900e-03,0.00061875
-1.279800e-03,0.000667188
-1.279700e-03,0.000628125
-1.279600e-03,0.000540625
-1.279500e-03,0.000654687
-1.279400e-03,0.000615625
-1.279300e-03,0.000592188
-1.279200e-03,0.00065625
-1.279100e-03,0.000604688
-1.279000e-03,0.00059375
-1.278900e-03,0.000540625
-1.278800e-03,0.000576563
-1.278700e-03,0.000620312
-1.278600e-03,0.0004875
-1.278500e-03,0.000503125
-1.278400e-03,0.000507813
-1.278300e-03,0.000629688
-1.278200e-03,0.00055
-1.278100e-03,0.000585937
-1.278000e-03,0.00059375
-1.277900e-03,0.000603125
-1.277800e-03,0.000639062
-1.277700e-03,0.000604688
-1.277600e-03,0.000528125
-1.277500e-03,0.00059375
-1.277400e-03,0.000540625
-1.277300e-03,0.000565625
-1.277200e-03,0.000570313
-1.277100e-03,0.000478125
-1.277000e-03,0.000448437
-1.276900e-03,0.000578125
-1.276800e-03,0.000479688
-1.276700e-03,0.000510937
-1.276600e-03,0.000528125
-1.276500e-03,0.000460938
-1.276400e-03,0.000428125
-1.276300e-03,0.000409375
-1.276200e-03,0.000453125
-1.276100e-03,0.000451563
-1.276000e-03,0.000510937
-1.275900e-03,0.000375
-1.275800e-03,0.000471875
-1.275700e-03,0.000339063
-1.275600e-03,0.000290625
-1.275500e-03,0.000476563
-1.275400e-03,0.000453125
-1.275300e-03,0.000470313
-1.275200e-03,0.0005125
-1.275100e-03,0.00040625
-1.275000e-03,0.000384375
-1.274900e-03,0.00041875
-1.274800e-03,0.00036875
-1.274700e-03,0.000329688
-1.274600e-03,0.00045625
-1.274500e-03,0.000353125
-1.274400e-03,0.000314062
-1.274300e-03,0.000234375
-1.274200e-03,0.00034375
-1.274100e-03,0.000389063
-1.274000e-03,0.00035
-1.273900e-03,0.000384375
-1.273800e-03,0.000320313
-1.273700e-03,0.000342187
-1.273600e-03,0.000335938
-1.273500e-03,0.000217188
-1.273400e-03,0.000307813
-1.273300e-03,0.00024375
-1.273200e-03,0.000203125
-1.273100e-03,0.000273438
-1.273000e-03,0.000295313
-1.272900e-03,0.000320313
-1.272800e-03,0.000326563
-1.272700e-03,0.000276563
-1.272600e-03,0.000204688
-1.272500e-03,0.000282813
-1.272400e-03,0.0003125
-1.272300e-03,0.000207813
-1.272200e-03,0.000235938
-1.272100e-03,0.000267188
-1.272000e-03,0.000209375
-1.271900e-03,0.000307813
-1.271800e-03,0.000234375
-1.271700e-03,0.000184375
-1.271600e-03,0.000295313
-1.271500e-03,0.000226563
-1.271400e-03,8.75e-05
-1.271300e-03,0.000201563
-1.271200e-03,8.4375e-05
-1.271100e-03,0.00020625
-1.271000e-03,0.000217188
-1.270900e-03,0.000142188
-1.270800e-03,0.000228125
-1.270700e-03,0.000142188
-1.270600e-03,0.0001875
-1.270500e-03,8.4375e-05
-1.270400e-03,7.8125e-05
-1.270300e-03,0.000103125
-1.270200e-03,6.25e-06
-1.270100e-03,8.59375e-05
-1.270000e-03,7.96875e-05
-1.269900e-03,9.375e-05
-1.269800e-03,8.28125e-05
-1.269700e-03,5.9375e-05
-1.269600e-03,-7.34375e-05
-1.269500e-03,4.6875e-05
-1.269400e-03,5.625e-05
-1.269300e-03,-7.8125e-06
-1.269200e-03,1.5625e-06
-1.269100e-03,-4.21875e-05
-1.269000e-03,0.00016875
-1.268900e-03,4.6875e-05
-1.268800e-03,6.40625e-05
-1.268700e-03,9.21875e-05
-1.268600e-03,-4.6875e-05
-1.268500e-03,-3.125e-05
-1.268400e-03,-4.6875e-06
-1.268300e-03,-3.75e-05
-1.268200e-03,-2.03125e-05
-1.268100e-03,-6.40625e-05
-1.268000e-03,-5.9375e-05
-1.267900e-03,0
-1.267800e-03,-2.34375e-05
-1.267700e-03,1.09375e-05
-1.267600e-03,-4.0625e-05
-1.267500e-03,-9.6875e-05
-1.267400e-03,-9.375e-05
-1.267300e-03,2.03125e-05
-1.267200e-03,-0.000125
-1.267100e-03,-0.000135938
-1.267000e-03,-1.5625e-05
-1.266900e-03,-0.00010625
-1.266800e-03,-4.0625e-05
-1.266700e-03,-0.000178125
-1.266600e-03,-9.0625e-05
-1.266500e-03,-7.8125e-06
-1.266400e-03,-5.625e-05
-1.266300e-03,-0.000171875
-1.266200e-03,-0.000165625
-1.266100e-03,-5.625e-05
-1.266000e-03,-0.000135938
-1.265900e-03,-0.000203125
-1.265800e-03,-0.000226563
-1.265700e-03,-0.000185938
-1.265600e-03,-0.000175
-1.265500e-03,-8.75e-05
-1.265400e-03,-0.000210937
-1.265300e-03,-0.0003125
-1.265200e-03,-0.000129688
-1.265100e-03,-0.000125
-1.265000e-03,-0.000190625
-1.264900e-03,-0.000223438
-1.264800e-03,-0.000164063
-1.264700e-03,-0.000125
-1.264600e-03,-0.000246875
-1.264500e-03,-0.000267188
-1.264400e-03,-0.000296875
-1.264300e-03,-0.000214063
-1.264200e-03,-0.0002125
-1.264100e-03,-0.000320313
-1.264000e-03,-0.000223438
-1.263900e-03,-0.000234375
-1.263800e-03,-0.000328125
-1.263700e-03,-0.000254688
-1.263600e-03,-0.000210937
-1.263500e-03,-0.000335938
-1.263400e-03,-0.000364063
-1.263300e-03,-0.000246875
-1.263200e-03,-0.00031875
-1.263100e-03,-0.00024375
-1.263000e-03,-0.000320313
-1.262900e-03,-0.000246875
-1.262800e-03,-0.000328125
-1.262700e-03,-0.000171875
-1.262600e-03,-0.000304687
-1.262500e-03,-0.000289063
-1.262400e-03,-0.000353125
-1.262300e-03,-0.000332812
-1.262200e-03,-0.000257813
-1.262100e-03,-0.000290625
-1.262000e-03,-0.000342187
-1.261900e-03,-0.000373438
-1.261800e-03,-0.000396875
-1.261700e-03,-0.000334375
-1.261600e-03,-0.000353125
-1.261500e-03,-0.0004375
-1.261400e-03,-0.0004125
-1.261300e-03,-0.000403125
-1.261200e-03,-0.0003625
-1.261100e-03,-0.000407813
-1.261000e-03,-0.000401563
-1.260900e-03,-0.000396875
-1.260800e-03,-0.000314062
-1.260700e-03,-0.000375
-1.260600e-03,-0.000371875
-1.260500e-03,-0.000395312
-1.260400e-03,-0.000482813
-1.260300e-03,-0.000440625
-1.260200e-03,-0.000525
-1.260100e-03,-0.000440625
-1.260000e-03,-0.000517188
-1.259900e-03,-0.000429688
-1.259800e-03,-0.000378125
-1.259700e-03,-0.000490625
-1.259600e-03,-0.000389063
-1.259500e-03,-0.000517188
-1.259400e-03,-0.000389063
-1.259300e-03,-0.000420313
-1.259200e-03,-0.0004875
-1.259100e-03,-0.000471875
-1.259000e-03,-0.000565625
-1.258900e-03,-0.00045625
-1.258800e-03,-0.000448437
-1.258700e-03,-0.000371875
-1.258600e-03,-0.000525
-1.258500e-03,-0.000595313
-1.258400e-03,-0.000520313
-1.258300e-03,-0.000570313
-1.258200e-03,-0.0006
-1.258100e-03,-0.0005625
-1.258000e-03,-0.000542188
-1.257900e-03,-0.000667188
-1.257800e-03,-0.000528125
-1.257700e-03,-0.000535938
-1.257600e-03,-0.000565625
-1.257500e-03,-0.000609375
-1.257400e-03,-0.0006875
-1.257300e-03,-0.000660938
-1.257200e-03,-0.000565625
-1.257100e-03,-0.00065625
-1.257000e-03,-0.000584375
-1.256900e-03,-0.000565625
-1.256800e-03,-0.000660938
-1.256700e-03,-0.000678125
-1.256600e-03,-0.000559375
-1.256500e-03,-0.000570313
-1.256400e-03,-0.00065
-1.256300e-03,-0.000690625
-1.256200e-03,-0.000654687
-1.256100e-03,-0.00061875
-1.256000e-03,-0.000615625
-1.255900e-03,-0.000573438
-1.255800e-03,-0.00074375
-1.255700e-03,-0.000603125
-1.255600e-03,-0.000626563
-1.255500e-03,-0.000671875
-1.255400e-03,-0.000645313
-1.255300e-03,-0.000625
-1.255200e-03,-0.000692187
-1.255100e-03,-0.000710937
-1.255000e-03,-0.00066875
-1.254900e-03,-0.00074375
-1.254800e-03,-0.000626563
-1.254700e-03,-0.00074375
-1.254600e-03,-0.000640625
-1.254500e-03,-0.000746875
-1.254400e-03,-0.000692187
-1.254300e-03,-0.000678125
-1.254200e-03,-0.000725
-1.254100e-03,-0.0007625
-1.254000e-03,-0.000764062
-1.253900e-03,-0.000675
-1.253800e-03,-0.00070625
-1.253700e-03,-0.000784375
-1.253600e-03,-0.0007375
-1.253500e-03,-0.000760938
-1.253400e-03,-0.000785938
-1.253300e-03,-0.0007375
-1.253200e-03,-0.000829688
-1.253100e-03,-0.000815625
-1.253000e-03,-0.000820313
-1.252900e-03,-0.000767188
-1.252800e-03,-0.000710937
-1.252700e-03,-0.000684375
-1.252600e-03,-0.000848438
-1.252500e-03,-0.000803125
-1.252400e-03,-0.0006625
-1.252300e-03,-0.0007875
-1.252200e-03,-0.000790625
-1.252100e-03,-0.000851562
-1.252000e-03,-0.000846875
-1.251900e-03,-0.0008
-1.251800e-03,-0.000828125
-1.251700e-03,-0.00079375
-1.251600e-03,-0.000815625
-1.251500e-03,-0.000859375
-1.251400e-03,-0.00076875
-1.251300e-03,-0.00090625
-1.251200e-03,-0.000834375
-1.251100e-03,-0.000760938
-1.251000e-03,-0.000828125
-1.250900e-03,-0.0008875
-1.250800e-03,-0.0008625
-1.250700e-03,-0.000825
-1.250600e-03,-0.00085625
-1.250500e-03,-0.000770313
-1.250400e-03,-0.00085
-1.250300e-03,-0.000876563
-1.250200e-03,-0.000914063
-1.250100e-03,-0.000829688
-1.250000e-03,-0.000892188
-1.249900e-03,-0.00089375
-1.249800e-03,-0.00085625
-1.249700e-03,-0.00095625
-1.249600e-03,-0.00107188
-1.249500e-03,-0.000917188
-1.249400e-03,-0.00100625
-1.249300e-03,-0.00105625
-1.249200e-03,-0.0009375
-1.249100e-03,-0.000896875
-1.249000e-03,-0.000926563
-1.248900e-03,-0.000882813
-1.248800e-03,-0.00098125
-1.248700e-03,-0.00096875
-1.248600e-03,-0.00102812
-1.248500e-03,-0.000907813
-1.248400e-03,-0.00095
-1.248300e-03,-0.001
-1.248200e-03,-0.000895313
-1.248100e-03,-0.0009125
-1.248000e-03,-0.000914063
-1.247900e-03,-0.000984375
-1.247800e-03,-0.00100625
-1.247700e-03,-0.000957813
-1.247600e-03,-0.0009375
-1.247500e-03,-0.00099375
-1.247400e-03,-0.00105313
-1.247300e-03,-0.00105313
-1.247200e-03,-0.000954688
-1.247100e-03,-0.00116094
-1.247000e-03,-0.00111563
-1.246900e-03,-0.000984375
-1.246800e-03,-0.00107344
-1.246700e-03,-0.00104063
-1.246600e-03,-0.00102656
-1.246500e-03,-0.000951563
-1.246400e-03,-0.00102031
-1.246300e-03,-0.000984375
-1.246200e-03,-0.00104688
-1.246100e-03,-0.0010375
-1.246000e-03,-0.00099375
-1.245900e-03,-0.00110469
-1.245800e-03,-0.00107031
-1.245700e-03,-0.00105
-1.245600e-03,-0.00110469
-1.245500e-03,-0.00101563
-1.245400e-03,-0.00108594
-1.245300e-03,-0.00108906
-1.245200e-03,-0.00110781
-1.245100e-03,-0.00107188
-1.245000e-03,-0.00103125
-1.244900e-03,-0.00101094
-1.244800e-03,-0.0010875
-1.244700e-03,-0.00100781
-1.244600e-03,-0.00108906
-1.244500e-03,-0.00116094
-1.244400e-03,-0.00111563
-1.244300e-03,-0.00114531
-1.244200e-03,-0.00116562
-1.244100e-03,-0.00104844
-1.244000e-03,-0.00110313
-1.243900e-03,-0.00109219
-1.243800e-03,-0.00107188
-1.243700e-03,-0.00109219
-1.243600e-03,-0.00105625
-1.243500e-03,-0.00114219
-1.243400e-03,-0.0010625
-1.243300e-03,-0.00117656
-1.243200e-03,-0.00113125
-1.243100e-03,-0.00122188
-1.243000e-03,-0.00120938
-1.242900e-03,-0.001125
-1.242800e-03,-0.00110469
-1.242700e-03,-0.00112656
-1.242600e-03,-0.00113437
-1.242500e-03,-0.00110625
-1.242400e-03,-0.00111094
-1.242300e-03,-0.0012
-1.242200e-03,-0.00120156
-1.242100e-03,-0.00119844
-1.242000e-03,-0.00114219
-1.241900e-03,-0.00121875
-1.241800e-03,-0.00126719
-1.241700e-03,-0.0013375
-1.241600e-03,-0.00114063
-1.241500e-03,-0.00115938
-1.241400e-03,-0.00127656
-1.241300e-03,-0.0011125
-1.241200e-03,-0.00111875
-1.241100e-03,-0.00125938
-1.241000e-03,-0.00110469
-1.240900e-03,-0.00132344
-1.240800e-03,-0.00115625
-1.240700e-03,-0.00123438
-1.240600e-03,-0.0012375
-1.240500e-03,-0.001175
-1.240400e-03,-0.00125
-1.240300e-03,-0.00120312
-1.240200e-03,-0.00126406
-1.240100e-03,-0.00125
-1.240000e-03,-0.00112344
-1.239900e-03,-0.00125313
-1.239800e-03,-0.00120938
-1.239700e-03,-0.00122813
-1.239600e-03,-0.00124531
-1.239500e-03,-0.00113906
-1.239400e-03,-0.00137188
-1.239300e-03,-0.00126875
-1.239200e-03,-0.00129219
-1.239100e-03,-0.00126563
-1.239000e-03,-0.00122656
-1.238900e-03,-0.00125938
-1.238800e-03,-0.00128125
-1.238700e-03,-0.00132344
-1.238600e-03,-0.00135313
-1.238500e-03,-0.00129219
-1.238400e-03,-0.00121094
-1.238300e-03,-0.00129375
-1.238200e-03,-0.00131406
-1.238100e-03,-0.001275
-1.238000e-03,-0.00137031
-1.237900e-03,-0.00134063
-1.237800e-03,-0.00129688
-1.237700e-03,-0.00125469
-1.237600e-03,-0.00129375
-1.237500e-03,-0.00135156
-1.237400e-03,-0.00127656
-1.237300e-03,-0.00131563
-1.237200e-03,-0.00133906
-1.237100e-03,-0.00132656
-1.237000e-03,-0.00132656
-1.236900e-03,-0.00136875
-1.236800e-03,-0.0013125
-1.236700e-03,-0.00139219
-1.236600e-03,-0.001375
-1.236500e-03,-0.00133281
-1.236400e-03,-0.00135156
-1.236300e-03,-0.00130781
-1.236200e-03,-0.00130625
-1.236100e-03,-0.00149844
-1.236000e-03,-0.00144688
-1.235900e-03,-0.00135313
-1.235800e-03,-0.00137188
-1.235700e-03,-0.00141094
-1.235600e-03,-0.00140625
-1.235500e-03,-0.001375
-1.235400e-03,-0.00143438
-1.235300e-03,-0.0014625
-1.235200e-03,-0.00134531
-1.235100e-03,-0.0013625
-1.235000e-03,-0.00132344
-1.234900e-03,-0.0013375
-1.234800e-03,-0.001375
-1.234700e-03,-0.00142187
-1.234600e-03,-0.00146719
-1.234500e-03,-0.00139844
-1.234400e-03,-0.00141406
-1.234300e-03,-0.00134219
-1.234200e-03,-0.00142344
-1.234100e-03,-0.00142187
-1.234000e-03,-0.0015125
-1.233900e-03,-0.00139063
-1.233800e-03,-0.00137031
-1.233700e-03,-0.00141719
-1.233600e-03,-0.00138594
-1.233500e-03,-0.0013625
-1.233400e-03,-0.0014875
-1.233300e-03,-0.00144688
-1.233200e-03,-0.00141719
-1.233100e-03,-0.001425
-1.233000e-03,-0.00138437
-1.232900e-03,-0.00143125
-1.232800e-03,-0.00134844
-1.232700e-03,-0.00143125
-1.232600e-03,-0.001425
-1.232500e-03,-0.00140156
-1.232400e-03,-0.00141562
-1.232300e-03,-0.00142031
-1.232200e-03,-0.00141562
-1.232100e-03,-0.00146406
-1.232000e-03,-0.00146094
-1.231900e-03,-0.00150156
-1.231800e-03,-0.00152344
-1.231700e-03,-0.00149219
-1.231600e-03,-0.00152969
-1.231500e-03,-0.00136875
-1.231400e-03,-0.00147031
-1.231300e-03,-0.00147656
-1.231200e-03,-0.00141562
-1.231100e-03,-0.00150313
-1.231000e-03,-0.00150625
-1.230900e-03,-0.001525
-1.230800e-03,-0.00145156
-1.230700e-03,-0.00144844
-1.230600e-03,-0.00153438
-1.230500e-03,-0.00157656
-1.230400e-03,-0.00156563
-1.230300e-03,-0.00160625
-1.230200e-03,-0.00154063
-1.230100e-03,-0.00159219

