Model,MDO3014
Firmware Version,1.20

Waveform Type,ANALOG
Point Format,Y
Horizontal Units,s
Horizontal Scale,0.001
Horizontal Delay,-0.00064
Sample Interval,1e-07
Record Length,100000
Gating,58.300% to 61.300%
Probe Attenuation,1
Vertical Units,V
Vertical Offset,0
Vertical Scale,0.01
Vertical Position,0
,
,
,
Label,
TIME,"MATH<CH2-CH1>"
1.899000e-04,0.0106688
1.900000e-04,0.0106344
1.901000e-04,0.0106781
1.902000e-04,0.0106344
1.903000e-04,0.0106125
1.904000e-04,0.0106063
1.905000e-04,0.0106531
1.906000e-04,0.0105688
1.907000e-04,0.0106063
1.908000e-04,0.0106
1.909000e-04,0.0104406
1.910000e-04,0.0105391
1.911000e-04,0.0104563
1.912000e-04,0.0105297
1.913000e-04,0.0105219
1.914000e-04,0.0104531
1.915000e-04,0.0104594
1.916000e-04,0.0104406
1.917000e-04,0.0105531
1.918000e-04,0.0103172
1.919000e-04,0.0103875
1.920000e-04,0.0104563
1.921000e-04,0.0103594
1.922000e-04,0.0103719
1.923000e-04,0.010375
1.924000e-04,0.0104844
1.925000e-04,0.0104938
1.926000e-04,0.0104641
1.927000e-04,0.0103375
1.928000e-04,0.0104
1.929000e-04,0.0103438
1.930000e-04,0.0104375
1.931000e-04,0.0103375
1.932000e-04,0.0102813
1.933000e-04,0.0102688
1.934000e-04,0.0101922
1.935000e-04,0.0102969
1.936000e-04,0.0102938
1.937000e-04,0.0104031
1.938000e-04,0.0103406
1.939000e-04,0.0102391
1.940000e-04,0.0103516
1.941000e-04,0.010225
1.942000e-04,0.0102125
1.943000e-04,0.0102375
1.944000e-04,0.0103406
1.945000e-04,0.0102375
1.946000e-04,0.0101625
1.947000e-04,0.0102844
1.948000e-04,0.0102688
1.949000e-04,0.01015
1.950000e-04,0.0102031
1.951000e-04,0.0102406
1.952000e-04,0.0102172
1.953000e-04,0.0101547
1.954000e-04,0.0101125
1.955000e-04,0.0101094
1.956000e-04,0.0100703
1.957000e-04,0.010175
1.958000e-04,0.0101969
1.959000e-04,0.0100938
1.960000e-04,0.0101172
1.961000e-04,0.0102219
1.962000e-04,0.0100906
1.963000e-04,0.0101531
1.964000e-04,0.0100625
1.965000e-04,0.0100875
1.966000e-04,0.0101
1.967000e-04,0.0101156
1.968000e-04,0.0100094
1.969000e-04,0.00995625
1.970000e-04,0.00993438
1.971000e-04,0.00985313
1.972000e-04,0.010025
1.973000e-04,0.0099875
1.974000e-04,0.00993438
1.975000e-04,0.009925
1.976000e-04,0.00985313
1.977000e-04,0.00987344
1.978000e-04,0.00988125
1.979000e-04,0.00991563
1.980000e-04,0.0099625
1.981000e-04,0.00997187
1.982000e-04,0.00988438
1.983000e-04,0.00994375
1.984000e-04,0.00995625
1.985000e-04,0.00984375
1.986000e-04,0.00973125
1.987000e-04,0.00979375
1.988000e-04,0.00980469
1.989000e-04,0.009825
1.990000e-04,0.0097625
1.991000e-04,0.00980938
1.992000e-04,0.00980156
1.993000e-04,0.00970312
1.994000e-04,0.00981562
1.995000e-04,0.00991875
1.996000e-04,0.00986406
1.997000e-04,0.00982813
1.998000e-04,0.009925
1.999000e-04,0.00975
2.000000e-04,0.00979063
2.001000e-04,0.00971875
2.002000e-04,0.00970312
2.003000e-04,0.0097875
2.004000e-04,0.00962188
2.005000e-04,0.00971719
2.006000e-04,0.00967344
2.007000e-04,0.00959688
2.008000e-04,0.00969219
2.009000e-04,0.00969375
2.010000e-04,0.00965625
2.011000e-04,0.00965
2.012000e-04,0.00975625
2.013000e-04,0.00962188
2.014000e-04,0.009625
2.015000e-04,0.00964531
2.016000e-04,0.0095875
2.017000e-04,0.00954063
2.018000e-04,0.00954375
2.019000e-04,0.00949063
2.020000e-04,0.00970625
2.021000e-04,0.00951719
2.022000e-04,0.00963438
2.023000e-04,0.0095125
2.024000e-04,0.009475
2.025000e-04,0.0095
2.026000e-04,0.00954375
2.027000e-04,0.00940313
2.028000e-04,0.00950625
2.029000e-04,0.00955
2.030000e-04,0.00942813
2.031000e-04,0.00945312
2.032000e-04,0.00940313
2.033000e-04,0.00949063
2.034000e-04,0.00938125
2.035000e-04,0.00935625
2.036000e-04,0.00946094
2.037000e-04,0.00950625
2.038000e-04,0.00929063
2.039000e-04,0.009425
2.040000e-04,0.00936094
2.041000e-04,0.00945
2.042000e-04,0.00933125
2.043000e-04,0.00930937
2.044000e-04,0.00935937
2.045000e-04,0.00940625
2.046000e-04,0.00926563
2.047000e-04,0.00932188
2.048000e-04,0.00926719
2.049000e-04,0.00929687
2.050000e-04,0.00925
2.051000e-04,0.009225
2.052000e-04,0.00919375
2.053000e-04,0.00923438
2.054000e-04,0.00925938
2.055000e-04,0.00926875
2.056000e-04,0.009275
2.057000e-04,0.009275
2.058000e-04,0.00921875
2.059000e-04,0.00915156
2.060000e-04,0.0091875
2.061000e-04,0.00915469
2.062000e-04,0.00920938
2.063000e-04,0.0091
2.064000e-04,0.00929063
2.065000e-04,0.00916875
2.066000e-04,0.00912656
2.067000e-04,0.00919375
2.068000e-04,0.00904375
2.069000e-04,0.00909375
2.070000e-04,0.00910313
2.071000e-04,0.00908438
2.072000e-04,0.00905313
2.073000e-04,0.00903438
2.074000e-04,0.00907188
2.075000e-04,0.00904063
2.076000e-04,0.00905
2.077000e-04,0.00894687
2.078000e-04,0.00903438
2.079000e-04,0.00911875
2.080000e-04,0.00893437
2.081000e-04,0.00891875
2.082000e-04,0.00890938
2.083000e-04,0.0088875
2.084000e-04,0.00887813
2.085000e-04,0.00886875
2.086000e-04,0.00889688
2.087000e-04,0.00899687
2.088000e-04,0.00897812
2.089000e-04,0.008975
2.090000e-04,0.00888125
2.091000e-04,0.00881875
2.092000e-04,0.00881563
2.093000e-04,0.0089
2.094000e-04,0.00884688
2.095000e-04,0.00889688
2.096000e-04,0.0087625
2.097000e-04,0.00883125
2.098000e-04,0.00872812
2.099000e-04,0.00866562
2.100000e-04,0.0088375
2.101000e-04,0.00866562
2.102000e-04,0.00874688
2.103000e-04,0.00886875
2.104000e-04,0.00873125
2.105000e-04,0.00868438
2.106000e-04,0.00873125
2.107000e-04,0.00863125
2.108000e-04,0.00868125
2.109000e-04,0.00874375
2.110000e-04,0.00874375
2.111000e-04,0.00861406
2.112000e-04,0.0086
2.113000e-04,0.0085
2.114000e-04,0.0085875
2.115000e-04,0.00857813
2.116000e-04,0.0086
2.117000e-04,0.00849688
2.118000e-04,0.00865313
2.119000e-04,0.00864063
2.120000e-04,0.00859063
2.121000e-04,0.008525
2.122000e-04,0.00849688
2.123000e-04,0.00852344
2.124000e-04,0.00835938
2.125000e-04,0.00851875
2.126000e-04,0.00845625
2.127000e-04,0.00853125
2.128000e-04,0.00855312
2.129000e-04,0.00845
2.130000e-04,0.00840313
2.131000e-04,0.00837188
2.132000e-04,0.0082375
2.133000e-04,0.0083375
2.134000e-04,0.00847969
2.135000e-04,0.00831563
2.136000e-04,0.00828906
2.137000e-04,0.008425
2.138000e-04,0.00842188
2.139000e-04,0.00840938
2.140000e-04,0.00834063
2.141000e-04,0.00831563
2.142000e-04,0.00831563
2.143000e-04,0.00829531
2.144000e-04,0.00830938
2.145000e-04,0.00825313
2.146000e-04,0.00827344
2.147000e-04,0.00830938
2.148000e-04,0.0082875
2.149000e-04,0.008225
2.150000e-04,0.00821094
2.151000e-04,0.00828125
2.152000e-04,0.00820625
2.153000e-04,0.00825
2.154000e-04,0.00809687
2.155000e-04,0.00810625
2.156000e-04,0.0081
2.157000e-04,0.00815937
2.158000e-04,0.0081
2.159000e-04,0.0080375
2.160000e-04,0.00812812
2.161000e-04,0.00814687
2.162000e-04,0.00815937
2.163000e-04,0.00799688
2.164000e-04,0.00810156
2.165000e-04,0.00806562
2.166000e-04,0.00805312
2.167000e-04,0.00804844
2.168000e-04,0.00804219
2.169000e-04,0.00794375
2.170000e-04,0.00803437
2.171000e-04,0.00813125
2.172000e-04,0.0080625
2.173000e-04,0.00800781
2.174000e-04,0.00795938
2.175000e-04,0.00788125
2.176000e-04,0.00798594
2.177000e-04,0.00790313
2.178000e-04,0.00793125
2.179000e-04,0.00791094
2.180000e-04,0.00798125
2.181000e-04,0.00796875
2.182000e-04,0.0080125
2.183000e-04,0.00794062
2.184000e-04,0.00779063
2.185000e-04,0.00777813
2.186000e-04,0.00783438
2.187000e-04,0.00785313
2.188000e-04,0.00790313
2.189000e-04,0.00773125
2.190000e-04,0.0077875
2.191000e-04,0.00775625
2.192000e-04,0.00778125
2.193000e-04,0.00778125
2.194000e-04,0.00770625
2.195000e-04,0.007725
2.196000e-04,0.00773438
2.197000e-04,0.00767813
2.198000e-04,0.00770625
2.199000e-04,0.00767188
2.200000e-04,0.00764375
2.201000e-04,0.00775313
2.202000e-04,0.0077
2.203000e-04,0.0077125
2.204000e-04,0.00760313
2.205000e-04,0.00765625
2.206000e-04,0.00759219
2.207000e-04,0.00756406
2.208000e-04,0.00755
2.209000e-04,0.00769063
2.210000e-04,0.00758594
2.211000e-04,0.007575
2.212000e-04,0.00755938
2.213000e-04,0.00757188
2.214000e-04,0.0075
2.215000e-04,0.00762031
2.216000e-04,0.0074875
2.217000e-04,0.00750313
2.218000e-04,0.00757813
2.219000e-04,0.00741875
2.220000e-04,0.00739375
2.221000e-04,0.00750625
2.222000e-04,0.00745
2.223000e-04,0.00746563
2.224000e-04,0.00731563
2.225000e-04,0.00743438
2.226000e-04,0.007375
2.227000e-04,0.00733438
2.228000e-04,0.00734375
2.229000e-04,0.00724063
2.230000e-04,0.00726563
2.231000e-04,0.00733438
2.232000e-04,0.00737187
2.233000e-04,0.00740938
2.234000e-04,0.00742969
2.235000e-04,0.00729375
2.236000e-04,0.00735
2.237000e-04,0.00734844
2.238000e-04,0.00726563
2.239000e-04,0.00728125
2.240000e-04,0.00735313
2.241000e-04,0.00723594
2.242000e-04,0.00736875
2.243000e-04,0.00725625
2.244000e-04,0.00718281
2.245000e-04,0.00745
2.246000e-04,0.00725
2.247000e-04,0.00720625
2.248000e-04,0.00725625
2.249000e-04,0.00714063
2.250000e-04,0.00708438
2.251000e-04,0.0073125
2.252000e-04,0.0071375
2.253000e-04,0.00719062
2.254000e-04,0.00705625
2.255000e-04,0.00708125
2.256000e-04,0.00717031
2.257000e-04,0.0070875
2.258000e-04,0.00712344
2.259000e-04,0.00702813
2.260000e-04,0.00704844
2.261000e-04,0.00705313
2.262000e-04,0.0070875
2.263000e-04,0.00715313
2.264000e-04,0.0071
2.265000e-04,0.00710313
2.266000e-04,0.00696719
2.267000e-04,0.006975
2.268000e-04,0.00693594
2.269000e-04,0.00698438
2.270000e-04,0.00699063
2.271000e-04,0.00708438
2.272000e-04,0.00695
2.273000e-04,0.007
2.274000e-04,0.006875
2.275000e-04,0.00703438
2.276000e-04,0.00684375
2.277000e-04,0.00692813
2.278000e-04,0.00695938
2.279000e-04,0.006825
2.280000e-04,0.00689688
2.281000e-04,0.00698438
2.282000e-04,0.006825
2.283000e-04,0.00675469
2.284000e-04,0.00685625
2.285000e-04,0.0068375
2.286000e-04,0.00682812
2.287000e-04,0.00676094
2.288000e-04,0.00675313
2.289000e-04,0.00676875
2.290000e-04,0.00680313
2.291000e-04,0.00690313
2.292000e-04,0.00683125
2.293000e-04,0.00690625
2.294000e-04,0.0067375
2.295000e-04,0.0068
2.296000e-04,0.00671563
2.297000e-04,0.006725
2.298000e-04,0.00678125
2.299000e-04,0.00676875
2.300000e-04,0.0066125
2.301000e-04,0.00665
2.302000e-04,0.00669531
2.303000e-04,0.00663125
2.304000e-04,0.00677188
2.305000e-04,0.00669375
2.306000e-04,0.00673437
2.307000e-04,0.00655938
2.308000e-04,0.00666719
2.309000e-04,0.00661094
2.310000e-04,0.00667813
2.311000e-04,0.00666719
2.312000e-04,0.00664688
2.313000e-04,0.00654688
2.314000e-04,0.00650938
2.315000e-04,0.00652187
2.316000e-04,0.00660938
2.317000e-04,0.00658125
2.318000e-04,0.00661094
2.319000e-04,0.0064875
2.320000e-04,0.0065
2.321000e-04,0.00656875
2.322000e-04,0.00658125
2.323000e-04,0.00659688
2.324000e-04,0.00649063
2.325000e-04,0.00642813
2.326000e-04,0.00654063
2.327000e-04,0.0064625
2.328000e-04,0.00664063
2.329000e-04,0.0065
2.330000e-04,0.0065
2.331000e-04,0.00647813
2.332000e-04,0.006425
2.333000e-04,0.00635
2.334000e-04,0.00640625
2.335000e-04,0.0064125
2.336000e-04,0.00647656
2.337000e-04,0.00640625
2.338000e-04,0.00649375
2.339000e-04,0.00634219
2.340000e-04,0.00640625
2.341000e-04,0.0064
2.342000e-04,0.00633438
2.343000e-04,0.00624531
2.344000e-04,0.00628594
2.345000e-04,0.00635313
2.346000e-04,0.00636094
2.347000e-04,0.00641875
2.348000e-04,0.00627813
2.349000e-04,0.00634062
2.350000e-04,0.00625938
2.351000e-04,0.00629844
2.352000e-04,0.00622656
2.353000e-04,0.00625938
2.354000e-04,0.0062875
2.355000e-04,0.0062
2.356000e-04,0.00625
2.357000e-04,0.00619531
2.358000e-04,0.00634531
2.359000e-04,0.0061375
2.360000e-04,0.00619062
2.361000e-04,0.00625313
2.362000e-04,0.00621875
2.363000e-04,0.00628125
2.364000e-04,0.0062125
2.365000e-04,0.00625938
2.366000e-04,0.0063875
2.367000e-04,0.00619375
2.368000e-04,0.00607188
2.369000e-04,0.00620625
2.370000e-04,0.006025
2.371000e-04,0.00620625
2.372000e-04,0.00610313
2.373000e-04,0.00618438
2.374000e-04,0.0061625
2.375000e-04,0.00607188
2.376000e-04,0.00613906
2.377000e-04,0.00605625
2.378000e-04,0.00592813
2.379000e-04,0.00599688
2.380000e-04,0.00605
2.381000e-04,0.00603906
2.382000e-04,0.0061625
2.383000e-04,0.00601563
2.384000e-04,0.00603594
2.385000e-04,0.006
2.386000e-04,0.00608906
2.387000e-04,0.00595313
2.388000e-04,0.00605156
2.389000e-04,0.00615
2.390000e-04,0.00608125
2.391000e-04,0.00594375
2.392000e-04,0.00594375
2.393000e-04,0.0059375
2.394000e-04,0.00607031
2.395000e-04,0.00597812
2.396000e-04,0.005975
2.397000e-04,0.00606875
2.398000e-04,0.00593125
2.399000e-04,0.005925
2.400000e-04,0.005925
2.401000e-04,0.00585938
2.402000e-04,0.00599375
2.403000e-04,0.00601406
2.404000e-04,0.005825
2.405000e-04,0.00589375
2.406000e-04,0.00593906
2.407000e-04,0.00581875
2.408000e-04,0.005925
2.409000e-04,0.00590156
2.410000e-04,0.00589375
2.411000e-04,0.00585313
2.412000e-04,0.00589375
2.413000e-04,0.00587813
2.414000e-04,0.00590938
2.415000e-04,0.00590625
2.416000e-04,0.00587344
2.417000e-04,0.00583438
2.418000e-04,0.00577188
2.419000e-04,0.00589531
2.420000e-04,0.00577188
2.421000e-04,0.00574688
2.422000e-04,0.00584531
2.423000e-04,0.00583438
2.424000e-04,0.00586406
2.425000e-04,0.0057625
2.426000e-04,0.00578438
2.427000e-04,0.0057625
2.428000e-04,0.00586563
2.429000e-04,0.00571875
2.430000e-04,0.005775
2.431000e-04,0.00579687
2.432000e-04,0.005775
2.433000e-04,0.00579687
2.434000e-04,0.00563125
2.435000e-04,0.00569531
2.436000e-04,0.0057875
2.437000e-04,0.00571563
2.438000e-04,0.00573125
2.439000e-04,0.00566875
2.440000e-04,0.00576406
2.441000e-04,0.00576406
2.442000e-04,0.00571563
2.443000e-04,0.00573125
2.444000e-04,0.00572188
2.445000e-04,0.00561875
2.446000e-04,0.0057625
2.447000e-04,0.00569531
2.448000e-04,0.00567813
2.449000e-04,0.00572656
2.450000e-04,0.00561094
2.451000e-04,0.00563125
2.452000e-04,0.0056375
2.453000e-04,0.00566563
2.454000e-04,0.00575469
2.455000e-04,0.00566563
2.456000e-04,0.00567813
2.457000e-04,0.00560625
2.458000e-04,0.00565313
2.459000e-04,0.00562813
2.460000e-04,0.00543594
2.461000e-04,0.00552187
2.462000e-04,0.00559844
2.463000e-04,0.0056125
2.464000e-04,0.00565469
2.465000e-04,0.00566875
2.466000e-04,0.00565
2.467000e-04,0.0055875
2.468000e-04,0.00550313
2.469000e-04,0.00554219
2.470000e-04,0.00548125
2.471000e-04,0.00544375
2.472000e-04,0.0054625
2.473000e-04,0.00562188
2.474000e-04,0.00555625
2.475000e-04,0.00544688
2.476000e-04,0.0054625
2.477000e-04,0.00547031
2.478000e-04,0.00554375
2.479000e-04,0.00555938
2.480000e-04,0.005525
2.481000e-04,0.00561094
2.482000e-04,0.00543437
2.483000e-04,0.00554063
2.484000e-04,0.00543125
2.485000e-04,0.00539375
2.486000e-04,0.00547969
2.487000e-04,0.0055375
2.488000e-04,0.00544844
2.489000e-04,0.00542188
2.490000e-04,0.00536875
2.491000e-04,0.00541875
2.492000e-04,0.00545469
2.493000e-04,0.00543594
2.494000e-04,0.00535313
2.495000e-04,0.00541875
2.496000e-04,0.00536875
2.497000e-04,0.00541875
2.498000e-04,0.0055125
2.499000e-04,0.00538438
2.500000e-04,0.00540312
2.501000e-04,0.00548281
2.502000e-04,0.00534844
2.503000e-04,0.00533594
2.504000e-04,0.0054375
2.505000e-04,0.00528281
2.506000e-04,0.00537187
2.507000e-04,0.00530313
2.508000e-04,0.00538125
2.509000e-04,0.00541875
2.510000e-04,0.00536406
2.511000e-04,0.00539063
2.512000e-04,0.00537656
2.513000e-04,0.00530781
2.514000e-04,0.00535
2.515000e-04,0.00534688
2.516000e-04,0.00525625
2.517000e-04,0.00522813
2.518000e-04,0.005275
2.519000e-04,0.00537344
2.520000e-04,0.00525
2.521000e-04,0.0052875
2.522000e-04,0.00527188
2.523000e-04,0.00540469
2.524000e-04,0.00526563
2.525000e-04,0.00530781
2.526000e-04,0.00521094
2.527000e-04,0.00529688
2.528000e-04,0.005275
2.529000e-04,0.00525781
2.530000e-04,0.00522656
2.531000e-04,0.00520469
2.532000e-04,0.00530156
2.533000e-04,0.00513125
2.534000e-04,0.005175
2.535000e-04,0.00521563
2.536000e-04,0.00522187
2.537000e-04,0.0051875
2.538000e-04,0.00518125
2.539000e-04,0.00517188
2.540000e-04,0.00521406
2.541000e-04,0.00510156
2.542000e-04,0.00525938
2.543000e-04,0.00526406
2.544000e-04,0.00513438
2.545000e-04,0.00526875
2.546000e-04,0.00515625
2.547000e-04,0.005275
2.548000e-04,0.0050875
2.549000e-04,0.0051
2.550000e-04,0.00520313
2.551000e-04,0.00514063
2.552000e-04,0.00502969
2.553000e-04,0.00512188
2.554000e-04,0.00515313
2.555000e-04,0.00512188
2.556000e-04,0.00505781
2.557000e-04,0.0051
2.558000e-04,0.005075
2.559000e-04,0.00516563
2.560000e-04,0.00505
2.561000e-04,0.00505156
2.562000e-04,0.0051125
2.563000e-04,0.00510156
2.564000e-04,0.00506875
2.565000e-04,0.0050625
2.566000e-04,0.00500625
2.567000e-04,0.00512188
2.568000e-04,0.00504375
2.569000e-04,0.00505156
2.570000e-04,0.00509531
2.571000e-04,0.00507813
2.572000e-04,0.00502813
2.573000e-04,0.00513438
2.574000e-04,0.00497812
2.575000e-04,0.00500469
2.576000e-04,0.00503438
2.577000e-04,0.00500625
2.578000e-04,0.0049125
2.579000e-04,0.00501563
2.580000e-04,0.00495
2.581000e-04,0.00500625
2.582000e-04,0.00516094
2.583000e-04,0.0050375
2.584000e-04,0.00502656
2.585000e-04,0.00497812
2.586000e-04,0.00490469
2.587000e-04,0.0049625
2.588000e-04,0.005025
2.589000e-04,0.00497656
2.590000e-04,0.00494687
2.591000e-04,0.00498281
2.592000e-04,0.00488281
2.593000e-04,0.00486406
2.594000e-04,0.00497031
2.595000e-04,0.00480469
2.596000e-04,0.00488437
2.597000e-04,0.00499063
2.598000e-04,0.00491562
2.599000e-04,0.00504688
2.600000e-04,0.004925
2.601000e-04,0.00474375
2.602000e-04,0.00505313
2.603000e-04,0.00487344
2.604000e-04,0.00485625
2.605000e-04,0.00503438
2.606000e-04,0.00489375
2.607000e-04,0.00491875
2.608000e-04,0.00489531
2.609000e-04,0.00493438
2.610000e-04,0.00487813
2.611000e-04,0.00490625
2.612000e-04,0.00493125
2.613000e-04,0.00496875
2.614000e-04,0.00473594
2.615000e-04,0.00505156
2.616000e-04,0.00488125
2.617000e-04,0.0049
2.618000e-04,0.00482656
2.619000e-04,0.00481875
2.620000e-04,0.00483594
2.621000e-04,0.00486094
2.622000e-04,0.00476719
2.623000e-04,0.00472969
2.624000e-04,0.00479375
2.625000e-04,0.00481563
2.626000e-04,0.00480469
2.627000e-04,0.00476406
2.628000e-04,0.00484219
2.629000e-04,0.00476562
2.630000e-04,0.00478281
2.631000e-04,0.00477188
2.632000e-04,0.00485625
2.633000e-04,0.0047625
2.634000e-04,0.00475313
2.635000e-04,0.00476562
2.636000e-04,0.00484531
2.637000e-04,0.00490938
2.638000e-04,0.00481875
2.639000e-04,0.0046625
2.640000e-04,0.00476875
2.641000e-04,0.00477188
2.642000e-04,0.00485156
2.643000e-04,0.004775
2.644000e-04,0.00475625
2.645000e-04,0.00479063
2.646000e-04,0.00485
2.647000e-04,0.00477813
2.648000e-04,0.00479531
2.649000e-04,0.00480938
2.650000e-04,0.0047
2.651000e-04,0.00469063
2.652000e-04,0.00475938
2.653000e-04,0.00468438
2.654000e-04,0.00475313
2.655000e-04,0.00477813
2.656000e-04,0.00471875
2.657000e-04,0.00459063
2.658000e-04,0.00478125
2.659000e-04,0.00461875
2.660000e-04,0.00467656
2.661000e-04,0.00471875
2.662000e-04,0.00471094
2.663000e-04,0.00468438
2.664000e-04,0.00470625
2.665000e-04,0.00466719
2.666000e-04,0.00471875
2.667000e-04,0.00460938
2.668000e-04,0.00462813
2.669000e-04,0.00460938
2.670000e-04,0.00458125
2.671000e-04,0.00472813
2.672000e-04,0.00458906
2.673000e-04,0.00459688
2.674000e-04,0.00460313
2.675000e-04,0.00471875
2.676000e-04,0.00455938
2.677000e-04,0.00472969
2.678000e-04,0.00473437
2.679000e-04,0.00466875
2.680000e-04,0.00463281
2.681000e-04,0.00471406
2.682000e-04,0.00468438
2.683000e-04,0.00458906
2.684000e-04,0.00459688
2.685000e-04,0.00457813
2.686000e-04,0.00471094
2.687000e-04,0.00465469
2.688000e-04,0.00474375
2.689000e-04,0.00456875
2.690000e-04,0.00474844
2.691000e-04,0.00449531
2.692000e-04,0.00465156
2.693000e-04,0.00458125
2.694000e-04,0.00451875
2.695000e-04,0.00465156
2.696000e-04,0.00463438
2.697000e-04,0.00450313
2.698000e-04,0.00453594
2.699000e-04,0.00457188
2.700000e-04,0.00445469
2.701000e-04,0.00450781
2.702000e-04,0.00454844
2.703000e-04,0.00449062
2.704000e-04,0.004425
2.705000e-04,0.0044
2.706000e-04,0.00445625
2.707000e-04,0.00449531
2.708000e-04,0.0045
2.709000e-04,0.00450625
2.710000e-04,0.00449531
2.711000e-04,0.00452031
2.712000e-04,0.00445781
2.713000e-04,0.00452187
2.714000e-04,0.00449688
2.715000e-04,0.00440781
2.716000e-04,0.00442344
2.717000e-04,0.00447656
2.718000e-04,0.00439063
2.719000e-04,0.0044625
2.720000e-04,0.00460938
2.721000e-04,0.00445781
2.722000e-04,0.00450313
2.723000e-04,0.00448594
2.724000e-04,0.00448438
2.725000e-04,0.00441875
2.726000e-04,0.00446562
2.727000e-04,0.00460313
2.728000e-04,0.004325
2.729000e-04,0.00444688
2.730000e-04,0.00447031
2.731000e-04,0.00445781
2.732000e-04,0.00451875
2.733000e-04,0.00455
2.734000e-04,0.00447188
2.735000e-04,0.00443125
2.736000e-04,0.00449844
2.737000e-04,0.00432969
2.738000e-04,0.00441875
2.739000e-04,0.0043375
2.740000e-04,0.00436563
2.741000e-04,0.00450938
2.742000e-04,0.00444375
2.743000e-04,0.00444375
2.744000e-04,0.00443906
2.745000e-04,0.00450938
2.746000e-04,0.00444375
2.747000e-04,0.00443125
2.748000e-04,0.0044625
2.749000e-04,0.004375
2.750000e-04,0.00439375
2.751000e-04,0.00436563
2.752000e-04,0.00435938
2.753000e-04,0.00439063
2.754000e-04,0.00436875
2.755000e-04,0.00440938
2.756000e-04,0.00436094
2.757000e-04,0.00435
2.758000e-04,0.00435938
2.759000e-04,0.00439063
2.760000e-04,0.00440312
2.761000e-04,0.00433438
2.762000e-04,0.00426875
2.763000e-04,0.0043875
2.764000e-04,0.00431406
2.765000e-04,0.00425
2.766000e-04,0.0043625
2.767000e-04,0.00430937
2.768000e-04,0.00424687
2.769000e-04,0.0041875
2.770000e-04,0.00425156
2.771000e-04,0.00429375
2.772000e-04,0.00434375
2.773000e-04,0.00419219
2.774000e-04,0.00436563
2.775000e-04,0.00424375
2.776000e-04,0.00423281
2.777000e-04,0.00434375
2.778000e-04,0.00430625
2.779000e-04,0.00420313
2.780000e-04,0.00425625
2.781000e-04,0.00424375
2.782000e-04,0.00429375
2.783000e-04,0.00433906
2.784000e-04,0.0042875
2.785000e-04,0.00433125
2.786000e-04,0.0043
2.787000e-04,0.00425
2.788000e-04,0.00415781
2.789000e-04,0.00414063
2.790000e-04,0.0040875
2.791000e-04,0.00412812
2.792000e-04,0.00405625
2.793000e-04,0.00417969
2.794000e-04,0.00418281
2.795000e-04,0.00426875
2.796000e-04,0.0041625
2.797000e-04,0.00420313
2.798000e-04,0.00417969
2.799000e-04,0.00420313
2.800000e-04,0.00411094
2.801000e-04,0.00419688
2.802000e-04,0.00419062
2.803000e-04,0.00424063
2.804000e-04,0.00414375
2.805000e-04,0.00424375
2.806000e-04,0.00421875
2.807000e-04,0.00420625
2.808000e-04,0.00411563
2.809000e-04,0.0042
2.810000e-04,0.00409063
2.811000e-04,0.00422187
2.812000e-04,0.00421094
2.813000e-04,0.00425625
2.814000e-04,0.00422813
2.815000e-04,0.00414688
2.816000e-04,0.004225
2.817000e-04,0.00418125
2.818000e-04,0.00428437
2.819000e-04,0.00407187
2.820000e-04,0.0040375
2.821000e-04,0.0041375
2.822000e-04,0.00410156
2.823000e-04,0.00416094
2.824000e-04,0.0040625
2.825000e-04,0.00398438
2.826000e-04,0.00415469
2.827000e-04,0.00413594
2.828000e-04,0.004075
2.829000e-04,0.0042125
2.830000e-04,0.00415156
2.831000e-04,0.00409844
2.832000e-04,0.00411719
2.833000e-04,0.00406719
2.834000e-04,0.00414063
2.835000e-04,0.00399844
2.836000e-04,0.004275
2.837000e-04,0.00408438
2.838000e-04,0.00415625
2.839000e-04,0.00417813
2.840000e-04,0.0041
2.841000e-04,0.00413125
2.842000e-04,0.00416875
2.843000e-04,0.00415
2.844000e-04,0.00403125
2.845000e-04,0.00408281
2.846000e-04,0.00415469
2.847000e-04,0.00403125
2.848000e-04,0.00408281
2.849000e-04,0.00408281
2.850000e-04,0.00402188
2.851000e-04,0.00404062
2.852000e-04,0.00405781
2.853000e-04,0.00401094
2.854000e-04,0.00410781
2.855000e-04,0.00400625
2.856000e-04,0.00405
2.857000e-04,0.00392188
2.858000e-04,0.00400937
2.859000e-04,0.00406094
2.860000e-04,0.00405625
2.861000e-04,0.00406719
2.862000e-04,0.00409687
2.863000e-04,0.00405938
2.864000e-04,0.00405313
2.865000e-04,0.00400937
2.866000e-04,0.00395625
2.867000e-04,0.00399531
2.868000e-04,0.00412188
2.869000e-04,0.00404375
2.870000e-04,0.0041
2.871000e-04,0.00401406
2.872000e-04,0.00407031
2.873000e-04,0.00395
2.874000e-04,0.00405
2.875000e-04,0.00394844
2.876000e-04,0.00409687
2.877000e-04,0.00392813
2.878000e-04,0.00398906
2.879000e-04,0.0040875
2.880000e-04,0.003975
2.881000e-04,0.00380469
2.882000e-04,0.00390313
2.883000e-04,0.00388906
2.884000e-04,0.00393125
2.885000e-04,0.00395313
2.886000e-04,0.00398125
2.887000e-04,0.0039875
2.888000e-04,0.00395
2.889000e-04,0.00388438
2.890000e-04,0.003875
2.891000e-04,0.00389844
2.892000e-04,0.00404844
2.893000e-04,0.00407187
2.894000e-04,0.00399375
2.895000e-04,0.0039625
2.896000e-04,0.00388281
2.897000e-04,0.00391562
2.898000e-04,0.00396406
2.899000e-04,0.00400469
2.900000e-04,0.00390938
2.901000e-04,0.00389844
2.902000e-04,0.00390625
2.903000e-04,0.00394687
2.904000e-04,0.00392656
2.905000e-04,0.004
2.906000e-04,0.00385938
2.907000e-04,0.00388281
2.908000e-04,0.00398906
2.909000e-04,0.00394844
2.910000e-04,0.00384219
2.911000e-04,0.00396875
2.912000e-04,0.00403125
2.913000e-04,0.00390781
2.914000e-04,0.00383125
2.915000e-04,0.00390469
2.916000e-04,0.00395313
2.917000e-04,0.00382031
2.918000e-04,0.00386875
2.919000e-04,0.00390625
2.920000e-04,0.00385938
2.921000e-04,0.00388281
2.922000e-04,0.00390625
2.923000e-04,0.00384531
2.924000e-04,0.00391875
2.925000e-04,0.0038125
2.926000e-04,0.0036625
2.927000e-04,0.00383594
2.928000e-04,0.00373438
2.929000e-04,0.00387656
2.930000e-04,0.00385625
2.931000e-04,0.00390938
2.932000e-04,0.00382813
2.933000e-04,0.00386719
2.934000e-04,0.00377344
2.935000e-04,0.00378125
2.936000e-04,0.00384375
2.937000e-04,0.00392656
2.938000e-04,0.0039
2.939000e-04,0.00384688
2.940000e-04,0.00384375
2.941000e-04,0.00377031
2.942000e-04,0.00370937
2.943000e-04,0.003875
2.944000e-04,0.003875
2.945000e-04,0.00375469
2.946000e-04,0.003775
2.947000e-04,0.00372813
2.948000e-04,0.0037375
2.949000e-04,0.00383281
2.950000e-04,0.00395313
2.951000e-04,0.00382188
2.952000e-04,0.00379063
2.953000e-04,0.00368125
2.954000e-04,0.00382813
2.955000e-04,0.00380313
2.956000e-04,0.00375938
2.957000e-04,0.00361719
2.958000e-04,0.00389062
2.959000e-04,0.003675
2.960000e-04,0.00382813
2.961000e-04,0.00374219
2.962000e-04,0.00373125
2.963000e-04,0.00365469
2.964000e-04,0.00369375
2.965000e-04,0.00374688
2.966000e-04,0.00367812
2.967000e-04,0.00369688
2.968000e-04,0.00386406
2.969000e-04,0.00366563
2.970000e-04,0.0037625
2.971000e-04,0.00377813
2.972000e-04,0.003725
2.973000e-04,0.00377813
2.974000e-04,0.00375781
2.975000e-04,0.00370313
2.976000e-04,0.0037625
2.977000e-04,0.00367812
2.978000e-04,0.00361875
2.979000e-04,0.00380313
2.980000e-04,0.0036375
2.981000e-04,0.00365
2.982000e-04,0.00385469
2.983000e-04,0.00372188
2.984000e-04,0.00364688
2.985000e-04,0.00368438
2.986000e-04,0.0036125
2.987000e-04,0.00362188
2.988000e-04,0.00363438
2.989000e-04,0.0037
2.990000e-04,0.00373906
2.991000e-04,0.0036875
2.992000e-04,0.003725
2.993000e-04,0.0036
2.994000e-04,0.00369375
2.995000e-04,0.003675
2.996000e-04,0.00369375
2.997000e-04,0.00351406
2.998000e-04,0.00366406
2.999000e-04,0.00376563
3.000000e-04,0.00375
3.001000e-04,0.00358125
3.002000e-04,0.0036625
3.003000e-04,0.00359688
3.004000e-04,0.00372813
3.005000e-04,0.00370313
3.006000e-04,0.00368125
3.007000e-04,0.00363438
3.008000e-04,0.00356875
3.009000e-04,0.00373125
3.010000e-04,0.00364375
3.011000e-04,0.00355625
3.012000e-04,0.00354531
3.013000e-04,0.00369531
3.014000e-04,0.00364688
3.015000e-04,0.00358594
3.016000e-04,0.00361563
3.017000e-04,0.00357187
3.018000e-04,0.00354688
3.019000e-04,0.00356563
3.020000e-04,0.00355
3.021000e-04,0.00356875
3.022000e-04,0.00359688
3.023000e-04,0.00357656
3.024000e-04,0.00365156
3.025000e-04,0.00359219
3.026000e-04,0.00359688
3.027000e-04,0.00361875
3.028000e-04,0.00356719
3.029000e-04,0.00357031
3.030000e-04,0.00365
3.031000e-04,0.00352813
3.032000e-04,0.003525
3.033000e-04,0.0035375
3.034000e-04,0.00353125
3.035000e-04,0.00363125
3.036000e-04,0.00365781
3.037000e-04,0.00351563
3.038000e-04,0.00372813
3.039000e-04,0.0036
3.040000e-04,0.00353281
3.041000e-04,0.00358594
3.042000e-04,0.00352813
3.043000e-04,0.00348125
3.044000e-04,0.00359844
3.045000e-04,0.0035125
3.046000e-04,0.00360625
3.047000e-04,0.00356406
3.048000e-04,0.00351094
3.049000e-04,0.003575
3.050000e-04,0.00355625
3.051000e-04,0.00351406
3.052000e-04,0.00355313
3.053000e-04,0.00352344
3.054000e-04,0.00362188
3.055000e-04,0.00341406
3.056000e-04,0.00351406
3.057000e-04,0.003675
3.058000e-04,0.0035125
3.059000e-04,0.00353125
3.060000e-04,0.00356875
3.061000e-04,0.00356563
3.062000e-04,0.00354375
3.063000e-04,0.00350625
3.064000e-04,0.00340938
3.065000e-04,0.00359844
3.066000e-04,0.00357813
3.067000e-04,0.00340313
3.068000e-04,0.00339375
3.069000e-04,0.003675
3.070000e-04,0.0035
3.071000e-04,0.00353906
3.072000e-04,0.00352188
3.073000e-04,0.00353125
3.074000e-04,0.00344063
3.075000e-04,0.003475
3.076000e-04,0.00350156
3.077000e-04,0.00340313
3.078000e-04,0.00340938
3.079000e-04,0.00341406
3.080000e-04,0.00355
3.081000e-04,0.0034
3.082000e-04,0.00345938
3.083000e-04,0.00347813
3.084000e-04,0.00348281
3.085000e-04,0.00351406
3.086000e-04,0.00351875
3.087000e-04,0.00349687
3.088000e-04,0.00343438
3.089000e-04,0.00347813
3.090000e-04,0.00345781
3.091000e-04,0.00339844
3.092000e-04,0.00351875
3.093000e-04,0.00344219
3.094000e-04,0.00348438
3.095000e-04,0.00355625
3.096000e-04,0.00339844
3.097000e-04,0.00354063
3.098000e-04,0.0034125
3.099000e-04,0.00343438
3.100000e-04,0.00348125
3.101000e-04,0.00336563
3.102000e-04,0.00359375
3.103000e-04,0.00340469
3.104000e-04,0.00340313
3.105000e-04,0.00344063
3.106000e-04,0.00352813
3.107000e-04,0.00342656
3.108000e-04,0.00339531
3.109000e-04,0.00335625
3.110000e-04,0.003525
3.111000e-04,0.00340469
3.112000e-04,0.00331875
3.113000e-04,0.00346562
3.114000e-04,0.00336875
3.115000e-04,0.00334688
3.116000e-04,0.00334063
3.117000e-04,0.00342344
3.118000e-04,0.00347813
3.119000e-04,0.00330469
3.120000e-04,0.00333125
3.121000e-04,0.00345
3.122000e-04,0.0033625
3.123000e-04,0.00342031
3.124000e-04,0.003375
3.125000e-04,0.00333281
3.126000e-04,0.0034
3.127000e-04,0.00341875
3.128000e-04,0.0034875
3.129000e-04,0.00337813
3.130000e-04,0.00337656
3.131000e-04,0.00334375
3.132000e-04,0.0034375
3.133000e-04,0.00346875
3.134000e-04,0.00343438
3.135000e-04,0.003375
3.136000e-04,0.00341875
3.137000e-04,0.00332188
3.138000e-04,0.00328125
3.139000e-04,0.00333281
3.140000e-04,0.00342188
3.141000e-04,0.00334844
3.142000e-04,0.0032875
3.143000e-04,0.00340938
3.144000e-04,0.00343594
3.145000e-04,0.00336719
3.146000e-04,0.00335
3.147000e-04,0.00331094
3.148000e-04,0.00336563
3.149000e-04,0.00324531
3.150000e-04,0.00334531
3.151000e-04,0.00339219
3.152000e-04,0.0033875
3.153000e-04,0.00334688
3.154000e-04,0.00337813
3.155000e-04,0.00342813
3.156000e-04,0.00327656
3.157000e-04,0.00330625
3.158000e-04,0.0033125
3.159000e-04,0.00335
3.160000e-04,0.00337188
3.161000e-04,0.00337656
3.162000e-04,0.0033
3.163000e-04,0.00330938
3.164000e-04,0.00339062
3.165000e-04,0.00325938
3.166000e-04,0.00333125
3.167000e-04,0.00336563
3.168000e-04,0.00334063
3.169000e-04,0.00331562
3.170000e-04,0.00329375
3.171000e-04,0.00333438
3.172000e-04,0.00341875
3.173000e-04,0.00342969
3.174000e-04,0.00337813
3.175000e-04,0.00336563
3.176000e-04,0.0033625
3.177000e-04,0.00341406
3.178000e-04,0.00332188
3.179000e-04,0.00329688
3.180000e-04,0.00333594
3.181000e-04,0.00329063
3.182000e-04,0.00335
3.183000e-04,0.00335937
3.184000e-04,0.00324063
3.185000e-04,0.00329063
3.186000e-04,0.00329531
3.187000e-04,0.00333125
3.188000e-04,0.00322188
3.189000e-04,0.00337969
3.190000e-04,0.0033375
3.191000e-04,0.00331875
3.192000e-04,0.0033
3.193000e-04,0.00316094
3.194000e-04,0.00320937
3.195000e-04,0.00335625
3.196000e-04,0.00336875
3.197000e-04,0.00339062
3.198000e-04,0.00335
3.199000e-04,0.00327969
3.200000e-04,0.00326563
3.201000e-04,0.00328906
3.202000e-04,0.00329375
3.203000e-04,0.0032625
3.204000e-04,0.00322188
3.205000e-04,0.00321875
3.206000e-04,0.00321875
3.207000e-04,0.00333125
3.208000e-04,0.00325938
3.209000e-04,0.00320625
3.210000e-04,0.00328594
3.211000e-04,0.00322656
3.212000e-04,0.00320781
3.213000e-04,0.00321875
3.214000e-04,0.00329063
3.215000e-04,0.00329688
3.216000e-04,0.0033
3.217000e-04,0.00329688
3.218000e-04,0.0032375
3.219000e-04,0.00335313
3.220000e-04,0.00346562
3.221000e-04,0.00332344
3.222000e-04,0.00330938
3.223000e-04,0.00325938
3.224000e-04,0.00314844
3.225000e-04,0.00326563
3.226000e-04,0.0032875
3.227000e-04,0.0032625
3.228000e-04,0.00309688
3.229000e-04,0.00316563
3.230000e-04,0.00315938
3.231000e-04,0.00325625
3.232000e-04,0.003275
3.233000e-04,0.00326563
3.234000e-04,0.00336563
3.235000e-04,0.00337969
3.236000e-04,0.00320781
3.237000e-04,0.00320625
3.238000e-04,0.00331562
3.239000e-04,0.0033
3.240000e-04,0.00316406
3.241000e-04,0.0032875
3.242000e-04,0.00325938
3.243000e-04,0.00315469
3.244000e-04,0.00312969
3.245000e-04,0.00315625
3.246000e-04,0.00328125
3.247000e-04,0.0032375
3.248000e-04,0.00320937
3.249000e-04,0.00319688
3.250000e-04,0.00326563
3.251000e-04,0.00322813
3.252000e-04,0.00317188
3.253000e-04,0.003175
3.254000e-04,0.00330313
3.255000e-04,0.00323438
3.256000e-04,0.00326406
3.257000e-04,0.00311563
3.258000e-04,0.00319063
3.259000e-04,0.00315
3.260000e-04,0.00317656
3.261000e-04,0.00315625
3.262000e-04,0.00319688
3.263000e-04,0.00315313
3.264000e-04,0.00333438
3.265000e-04,0.0032625
3.266000e-04,0.00320781
3.267000e-04,0.00330313
3.268000e-04,0.00322188
3.269000e-04,0.0032125
3.270000e-04,0.00326563
3.271000e-04,0.00316563
3.272000e-04,0.00319688
3.273000e-04,0.003275
3.274000e-04,0.00315313
3.275000e-04,0.00316094
3.276000e-04,0.00328125
3.277000e-04,0.00310781
3.278000e-04,0.00315
3.279000e-04,0.00318125
3.280000e-04,0.00321563
3.281000e-04,0.00329688
3.282000e-04,0.00318125
3.283000e-04,0.00309688
3.284000e-04,0.00314531
3.285000e-04,0.00319375
3.286000e-04,0.00330313
3.287000e-04,0.0032375
3.288000e-04,0.00315
3.289000e-04,0.0031375
3.290000e-04,0.00324531
3.291000e-04,0.00309688
3.292000e-04,0.00312969
3.293000e-04,0.00315313
3.294000e-04,0.0031
3.295000e-04,0.00313594
3.296000e-04,0.00305625
3.297000e-04,0.0032125
3.298000e-04,0.00320781
3.299000e-04,0.003225
3.300000e-04,0.00322188
3.301000e-04,0.00313125
3.302000e-04,0.003275
3.303000e-04,0.00309219
3.304000e-04,0.00318906
3.305000e-04,0.00320625
3.306000e-04,0.00313438
3.307000e-04,0.00309688
3.308000e-04,0.00310625
3.309000e-04,0.00317812
3.310000e-04,0.00325312
3.311000e-04,0.00316875
3.312000e-04,0.00326719
3.313000e-04,0.00305625
3.314000e-04,0.00315938
3.315000e-04,0.00316563
3.316000e-04,0.00308594
3.317000e-04,0.00321563
3.318000e-04,0.00310938
3.319000e-04,0.003125
3.320000e-04,0.00314688
3.321000e-04,0.00311406
3.322000e-04,0.00319531
3.323000e-04,0.0031875
3.324000e-04,0.00309688
3.325000e-04,0.00319063
3.326000e-04,0.00323125
3.327000e-04,0.00309688
3.328000e-04,0.00317812
3.329000e-04,0.00320937
3.330000e-04,0.00309375
3.331000e-04,0.00317031
3.332000e-04,0.00312031
3.333000e-04,0.00318438
3.334000e-04,0.00308906
3.335000e-04,0.00304219
3.336000e-04,0.00308281
3.337000e-04,0.00327656
3.338000e-04,0.00309688
3.339000e-04,0.00308906
3.340000e-04,0.00305
3.341000e-04,0.00315
3.342000e-04,0.00313125
3.343000e-04,0.00312813
3.344000e-04,0.00319844
3.345000e-04,0.00302813
3.346000e-04,0.00310312
3.347000e-04,0.00314375
3.348000e-04,0.00312188
3.349000e-04,0.00305938
3.350000e-04,0.00321406
3.351000e-04,0.00307813
3.352000e-04,0.00308438
3.353000e-04,0.00311875
3.354000e-04,0.00316875
3.355000e-04,0.003025
3.356000e-04,0.0031
3.357000e-04,0.00306094
3.358000e-04,0.00319219
3.359000e-04,0.00319375
3.360000e-04,0.00319219
3.361000e-04,0.00306094
3.362000e-04,0.00317188
3.363000e-04,0.00311875
3.364000e-04,0.00320625
3.365000e-04,0.00311094
3.366000e-04,0.00317031
3.367000e-04,0.00314688
3.368000e-04,0.0030125
3.369000e-04,0.00320937
3.370000e-04,0.0031625
3.371000e-04,0.00311563
3.372000e-04,0.00301719
3.373000e-04,0.00319844
3.374000e-04,0.00314063
3.375000e-04,0.00309844
3.376000e-04,0.0031375
3.377000e-04,0.00309063
3.378000e-04,0.00312813
3.379000e-04,0.00306406
3.380000e-04,0.00308125
3.381000e-04,0.00311563
3.382000e-04,0.00301094
3.383000e-04,0.00299687
3.384000e-04,0.00305
3.385000e-04,0.00302813
3.386000e-04,0.0031125
3.387000e-04,0.00305781
3.388000e-04,0.00314375
3.389000e-04,0.00305781
3.390000e-04,0.00313125
3.391000e-04,0.00309844
3.392000e-04,0.00316719
3.393000e-04,0.00306094
3.394000e-04,0.00311875
3.395000e-04,0.00295781
3.396000e-04,0.00309063
3.397000e-04,0.00314688
3.398000e-04,0.00309063
3.399000e-04,0.00311406
3.400000e-04,0.00315
3.401000e-04,0.0030875
3.402000e-04,0.00307813
3.403000e-04,0.00307969
3.404000e-04,0.00317656
3.405000e-04,0.00314844
3.406000e-04,0.00316719
3.407000e-04,0.00297969
3.408000e-04,0.00304688
3.409000e-04,0.00311875
3.410000e-04,0.00309844
3.411000e-04,0.00313438
3.412000e-04,0.00309063
3.413000e-04,0.00312031
3.414000e-04,0.00309063
3.415000e-04,0.00315938
3.416000e-04,0.00312188
3.417000e-04,0.00305469
3.418000e-04,0.00318125
3.419000e-04,0.00302031
3.420000e-04,0.00312344
3.421000e-04,0.00315938
3.422000e-04,0.00303281
3.423000e-04,0.00302969
3.424000e-04,0.003025
3.425000e-04,0.0030875
3.426000e-04,0.00311875
3.427000e-04,0.00318906
3.428000e-04,0.00322188
3.429000e-04,0.00297188
3.430000e-04,0.00315938
3.431000e-04,0.00305938
3.432000e-04,0.00308438
3.433000e-04,0.00308906
3.434000e-04,0.00305781
3.435000e-04,0.00299687
3.436000e-04,0.0031
3.437000e-04,0.003125
3.438000e-04,0.00300938
3.439000e-04,0.00317812
3.440000e-04,0.00303125
3.441000e-04,0.0030375
3.442000e-04,0.00315313
3.443000e-04,0.00302031
3.444000e-04,0.00308438
3.445000e-04,0.00303125
3.446000e-04,0.00310156
3.447000e-04,0.00311406
3.448000e-04,0.00308281
3.449000e-04,0.00303281
3.450000e-04,0.0030125
3.451000e-04,0.00308438
3.452000e-04,0.00309688
3.453000e-04,0.00309063
3.454000e-04,0.003025
3.455000e-04,0.003025
3.456000e-04,0.00314531
3.457000e-04,0.00315313
3.458000e-04,0.00298125
3.459000e-04,0.00322188
3.460000e-04,0.00306719
3.461000e-04,0.00296719
3.462000e-04,0.00307187
3.463000e-04,0.00315
3.464000e-04,0.00297188
3.465000e-04,0.00304063
3.466000e-04,0.00313906
3.467000e-04,0.0031375
3.468000e-04,0.00311406
3.469000e-04,0.00299375
3.470000e-04,0.00305469
3.471000e-04,0.00305313
3.472000e-04,0.00301406
3.473000e-04,0.00312188
3.474000e-04,0.00305
3.475000e-04,0.00307187
3.476000e-04,0.00291875
3.477000e-04,0.00294688
3.478000e-04,0.00298594
3.479000e-04,0.00306875
3.480000e-04,0.0030375
3.481000e-04,0.00304063
3.482000e-04,0.003025
3.483000e-04,0.00308594
3.484000e-04,0.00312188
3.485000e-04,0.0030125
3.486000e-04,0.00307187
3.487000e-04,0.00295938
3.488000e-04,0.00308594
3.489000e-04,0.003175
3.490000e-04,0.00296875
3.491000e-04,0.00315
3.492000e-04,0.00305938
3.493000e-04,0.00295313
3.494000e-04,0.00301563
3.495000e-04,0.00305938
3.496000e-04,0.00315
3.497000e-04,0.00308906
3.498000e-04,0.00300313
3.499000e-04,0.00306406
3.500000e-04,0.00308125
3.501000e-04,0.0030625
3.502000e-04,0.00303125
3.503000e-04,0.00304375
3.504000e-04,0.0031125
3.505000e-04,0.00305
3.506000e-04,0.002975
3.507000e-04,0.00306094
3.508000e-04,0.00305156
3.509000e-04,0.00303594
3.510000e-04,0.0029375
3.511000e-04,0.0030125
3.512000e-04,0.00305469
3.513000e-04,0.00308594
3.514000e-04,0.00311719
3.515000e-04,0.00297656
3.516000e-04,0.00295156
3.517000e-04,0.00302813
3.518000e-04,0.00297188
3.519000e-04,0.003
3.520000e-04,0.00305313
3.521000e-04,0.00311094
3.522000e-04,0.00314063
3.523000e-04,0.00302188
3.524000e-04,0.00291875
3.525000e-04,0.00303281
3.526000e-04,0.003
3.527000e-04,0.00302188
3.528000e-04,0.00314531
3.529000e-04,0.0029875
3.530000e-04,0.003
3.531000e-04,0.003
3.532000e-04,0.00313594
3.533000e-04,0.00291563
3.534000e-04,0.00294219
3.535000e-04,0.00304375
3.536000e-04,0.00305
3.537000e-04,0.00294375
3.538000e-04,0.00308594
3.539000e-04,0.00295625
3.540000e-04,0.00310625
3.541000e-04,0.00296406
3.542000e-04,0.00303438
3.543000e-04,0.00311094
3.544000e-04,0.0028875
3.545000e-04,0.00299063
3.546000e-04,0.00300781
3.547000e-04,0.00298125
3.548000e-04,0.00304063
3.549000e-04,0.00305
3.550000e-04,0.00307187
3.551000e-04,0.003
3.552000e-04,0.00294688
3.553000e-04,0.00297813
3.554000e-04,0.0030375
3.555000e-04,0.00302344
3.556000e-04,0.00299375
3.557000e-04,0.00305469
3.558000e-04,0.003
3.559000e-04,0.0030375
3.560000e-04,0.002975
3.561000e-04,0.00308125
3.562000e-04,0.00297656
3.563000e-04,0.00296875
3.564000e-04,0.00294375
3.565000e-04,0.00297813
3.566000e-04,0.00308594
3.567000e-04,0.0030125
3.568000e-04,0.00304219
3.569000e-04,0.00309375
3.570000e-04,0.00302031
3.571000e-04,0.00304063
3.572000e-04,0.00297188
3.573000e-04,0.00305156
3.574000e-04,0.00309375
3.575000e-04,0.00297188
3.576000e-04,0.00310312
3.577000e-04,0.003075
3.578000e-04,0.00308125
3.579000e-04,0.00312344
3.580000e-04,0.003
3.581000e-04,0.00304219
3.582000e-04,0.002925
3.583000e-04,0.00300313
3.584000e-04,0.00309375
3.585000e-04,0.00299531
3.586000e-04,0.00310156
3.587000e-04,0.00301094
3.588000e-04,0.00304688
3.589000e-04,0.00296875
3.590000e-04,0.00302813
3.591000e-04,0.00304063
3.592000e-04,0.00302656
3.593000e-04,0.00300156
3.594000e-04,0.00300313
3.595000e-04,0.00303125
3.596000e-04,0.00296875
3.597000e-04,0.00291719
3.598000e-04,0.0029625
3.599000e-04,0.00297969
3.600000e-04,0.00292813
3.601000e-04,0.0029625
3.602000e-04,0.0029875
3.603000e-04,0.0030875
3.604000e-04,0.0030125
3.605000e-04,0.00284375
3.606000e-04,0.00295625
3.607000e-04,0.00294531
3.608000e-04,0.00300313
3.609000e-04,0.00293438
3.610000e-04,0.00295469
3.611000e-04,0.00301563
3.612000e-04,0.00301094
3.613000e-04,0.00302031
3.614000e-04,0.00298125
3.615000e-04,0.00302188
3.616000e-04,0.002925
3.617000e-04,0.00301875
3.618000e-04,0.00299375
3.619000e-04,0.00308125
3.620000e-04,0.00304688
3.621000e-04,0.00296875
3.622000e-04,0.00285625
3.623000e-04,0.00292813
3.624000e-04,0.00302813
3.625000e-04,0.00299063
3.626000e-04,0.00291563
3.627000e-04,0.00300938
3.628000e-04,0.00316719
3.629000e-04,0.00305
3.630000e-04,0.00309688
3.631000e-04,0.00302813
3.632000e-04,0.0030375
3.633000e-04,0.00300781
3.634000e-04,0.00306406
3.635000e-04,0.00297813
3.636000e-04,0.002975
3.637000e-04,0.0029375
3.638000e-04,0.0029125
3.639000e-04,0.002975
3.640000e-04,0.00290781
3.641000e-04,0.00292187
3.642000e-04,0.00294219
3.643000e-04,0.00306406
3.644000e-04,0.00310938
3.645000e-04,0.00293281
3.646000e-04,0.00293438
3.647000e-04,0.00309688
3.648000e-04,0.00293281
3.649000e-04,0.00303281
3.650000e-04,0.0030875
3.651000e-04,0.00287031
3.652000e-04,0.00296719
3.653000e-04,0.00298594
3.654000e-04,0.00303125
3.655000e-04,0.003
3.656000e-04,0.0030625
3.657000e-04,0.00291563
3.658000e-04,0.00296875
3.659000e-04,0.00299531
3.660000e-04,0.0029125
3.661000e-04,0.00304219
3.662000e-04,0.0029625
3.663000e-04,0.00302656
3.664000e-04,0.00305313
3.665000e-04,0.00298125
3.666000e-04,0.0030125
3.667000e-04,0.003
3.668000e-04,0.00297188
3.669000e-04,0.0029875
3.670000e-04,0.00305156
3.671000e-04,0.00292187
3.672000e-04,0.00299375
3.673000e-04,0.00293906
3.674000e-04,0.00306563
3.675000e-04,0.00295313
3.676000e-04,0.00297656
3.677000e-04,0.00299063
3.678000e-04,0.00303125
3.679000e-04,0.00298438
3.680000e-04,0.0029875
3.681000e-04,0.00295469
3.682000e-04,0.0030125
3.683000e-04,0.00292969
3.684000e-04,0.0031375
3.685000e-04,0.00289062
3.686000e-04,0.00295469
3.687000e-04,0.00303125
3.688000e-04,0.0029125
3.689000e-04,0.00293125
3.690000e-04,0.00297188
3.691000e-04,0.003
3.692000e-04,0.00297188
3.693000e-04,0.00305
3.694000e-04,0.00297188
3.695000e-04,0.00297188
3.696000e-04,0.00304063
3.697000e-04,0.00288906
3.698000e-04,0.00293125
3.699000e-04,0.00295938
3.700000e-04,0.00301719
3.701000e-04,0.00295156
3.702000e-04,0.00293281
3.703000e-04,0.00292656
3.704000e-04,0.00290625
3.705000e-04,0.00287656
3.706000e-04,0.00288281
3.707000e-04,0.00308281
3.708000e-04,0.00309688
3.709000e-04,0.00301719
3.710000e-04,0.0030125
3.711000e-04,0.00307656
3.712000e-04,0.00302031
3.713000e-04,0.00304688
3.714000e-04,0.00295313
3.715000e-04,0.00291563
3.716000e-04,0.00305
3.717000e-04,0.0028625
3.718000e-04,0.00300625
3.719000e-04,0.003
3.720000e-04,0.00305781
3.721000e-04,0.002975
3.722000e-04,0.00290781
3.723000e-04,0.00306094
3.724000e-04,0.00294063
3.725000e-04,0.00312031
3.726000e-04,0.00285625
3.727000e-04,0.00292813
3.728000e-04,0.00289062
3.729000e-04,0.00287813
3.730000e-04,0.00294688
3.731000e-04,0.00305
3.732000e-04,0.00298594
3.733000e-04,0.00301094
3.734000e-04,0.00285
3.735000e-04,0.00294844
3.736000e-04,0.00283125
3.737000e-04,0.00300469
3.738000e-04,0.00296719
3.739000e-04,0.00289688
3.740000e-04,0.00300313
3.741000e-04,0.00304219
3.742000e-04,0.00283594
3.743000e-04,0.00290781
3.744000e-04,0.00314063
3.745000e-04,0.00299375
3.746000e-04,0.00293281
3.747000e-04,0.00292969
3.748000e-04,0.00292969
3.749000e-04,0.003
3.750000e-04,0.00283594
3.751000e-04,0.00285
3.752000e-04,0.00297188
3.753000e-04,0.00296719
3.754000e-04,0.00300625
3.755000e-04,0.00299375
3.756000e-04,0.00295
3.757000e-04,0.00299687
3.758000e-04,0.00297188
3.759000e-04,0.00306563
3.760000e-04,0.00286875
3.761000e-04,0.00290156
3.762000e-04,0.00295938
3.763000e-04,0.00287813
3.764000e-04,0.002875
3.765000e-04,0.00283594
3.766000e-04,0.00284375
3.767000e-04,0.00295625
3.768000e-04,0.00295156
3.769000e-04,0.00288594
3.770000e-04,0.00304219
3.771000e-04,0.00297656
3.772000e-04,0.00290781
3.773000e-04,0.00298125
3.774000e-04,0.00291719
3.775000e-04,0.00294688
3.776000e-04,0.00290938
3.777000e-04,0.00297188
3.778000e-04,0.00294844
3.779000e-04,0.003
3.780000e-04,0.00305156
3.781000e-04,0.003
3.782000e-04,0.00305313
3.783000e-04,0.00289844
3.784000e-04,0.00294844
3.785000e-04,0.00294375
3.786000e-04,0.00297656
3.787000e-04,0.00298438
3.788000e-04,0.00286875
3.789000e-04,0.00289062
3.790000e-04,0.00295469
3.791000e-04,0.00288438
3.792000e-04,0.0029125
3.793000e-04,0.0031
3.794000e-04,0.00297656
3.795000e-04,0.00297188
3.796000e-04,0.00295156
3.797000e-04,0.00285
3.798000e-04,0.00282656
3.799000e-04,0.00293125
3.800000e-04,0.00294063
3.801000e-04,0.00290938
3.802000e-04,0.00302188
3.803000e-04,0.00298438
3.804000e-04,0.00295625
3.805000e-04,0.0029375
3.806000e-04,0.00300781
3.807000e-04,0.0028875
3.808000e-04,0.00293125
3.809000e-04,0.00292187
3.810000e-04,0.00290938
3.811000e-04,0.00292813
3.812000e-04,0.00294844
3.813000e-04,0.00302813
3.814000e-04,0.00286563
3.815000e-04,0.00300938
3.816000e-04,0.00298438
3.817000e-04,0.00294531
3.818000e-04,0.00298438
3.819000e-04,0.00299063
3.820000e-04,0.00296875
3.821000e-04,0.0030375
3.822000e-04,0.002925
3.823000e-04,0.002875
3.824000e-04,0.00300781
3.825000e-04,0.00295156
3.826000e-04,0.00301563
3.827000e-04,0.00289062
3.828000e-04,0.00295469
3.829000e-04,0.00301094
3.830000e-04,0.00293281
3.831000e-04,0.00309844
3.832000e-04,0.002925
3.833000e-04,0.00296875
3.834000e-04,0.00292969
3.835000e-04,0.00295938
3.836000e-04,0.00298594
3.837000e-04,0.00300781
3.838000e-04,0.0029375
3.839000e-04,0.00294688
3.840000e-04,0.00297656
3.841000e-04,0.00286875
3.842000e-04,0.00283438
3.843000e-04,0.00286563
3.844000e-04,0.00290625
3.845000e-04,0.00311875
3.846000e-04,0.00299375
3.847000e-04,0.00294688
3.848000e-04,0.0029125
3.849000e-04,0.00292187
3.850000e-04,0.00294688
3.851000e-04,0.003
3.852000e-04,0.00292187
3.853000e-04,0.00289375
3.854000e-04,0.00294688
3.855000e-04,0.00294375
3.856000e-04,0.00290781
3.857000e-04,0.00290625
3.858000e-04,0.00295469
3.859000e-04,0.00296562
3.860000e-04,0.00294688
3.861000e-04,0.00285625
3.862000e-04,0.00283906
3.863000e-04,0.00287031
3.864000e-04,0.00298438
3.865000e-04,0.00293906
3.866000e-04,0.0028625
3.867000e-04,0.0029
3.868000e-04,0.00289375
3.869000e-04,0.002925
3.870000e-04,0.003
3.871000e-04,0.00287344
3.872000e-04,0.00284375
3.873000e-04,0.0030375
3.874000e-04,0.00303438
3.875000e-04,0.00289844
3.876000e-04,0.00301875
3.877000e-04,0.00297188
3.878000e-04,0.00298906
3.879000e-04,0.00281875
3.880000e-04,0.00282656
3.881000e-04,0.00284375
3.882000e-04,0.00288125
3.883000e-04,0.00292187
3.884000e-04,0.00284375
3.885000e-04,0.0030125
3.886000e-04,0.00296875
3.887000e-04,0.00281875
3.888000e-04,0.00282656
3.889000e-04,0.00283125
3.890000e-04,0.00283438
3.891000e-04,0.00296719
3.892000e-04,0.00288281
3.893000e-04,0.00295781
3.894000e-04,0.00289688
3.895000e-04,0.00294375
3.896000e-04,0.00289375
3.897000e-04,0.00296094
3.898000e-04,0.00296562
3.899000e-04,0.00287188
3.900000e-04,0.00289844
3.901000e-04,0.00282031
3.902000e-04,0.00291563
3.903000e-04,0.00291875
3.904000e-04,0.00285781
3.905000e-04,0.002825
3.906000e-04,0.00295625
3.907000e-04,0.00290156
3.908000e-04,0.00295938
3.909000e-04,0.0029
3.910000e-04,0.00289062
3.911000e-04,0.00294063
3.912000e-04,0.00281562
3.913000e-04,0.00289375
3.914000e-04,0.00279531
3.915000e-04,0.00290781
3.916000e-04,0.00294063
3.917000e-04,0.00285313
3.918000e-04,0.00280156
3.919000e-04,0.00289062
3.920000e-04,0.00285
3.921000e-04,0.00295938
3.922000e-04,0.00287344
3.923000e-04,0.00288594
3.924000e-04,0.00305
3.925000e-04,0.00289844
3.926000e-04,0.00283125
3.927000e-04,0.00303125
3.928000e-04,0.00285313
3.929000e-04,0.002875
3.930000e-04,0.00277656
3.931000e-04,0.00295313
3.932000e-04,0.002925
3.933000e-04,0.00287813
3.934000e-04,0.00289219
3.935000e-04,0.00283125
3.936000e-04,0.00295938
3.937000e-04,0.00286563
3.938000e-04,0.00285313
3.939000e-04,0.00293438
3.940000e-04,0.00289844
3.941000e-04,0.00274531
3.942000e-04,0.0028875
3.943000e-04,0.00290313
3.944000e-04,0.00285625
3.945000e-04,0.00289375
3.946000e-04,0.00275469
3.947000e-04,0.00289688
3.948000e-04,0.00283438
3.949000e-04,0.00288281
3.950000e-04,0.00287188
3.951000e-04,0.00296719
3.952000e-04,0.00285469
3.953000e-04,0.00284375
3.954000e-04,0.0028875
3.955000e-04,0.00289688
3.956000e-04,0.00286406
3.957000e-04,0.00272969
3.958000e-04,0.002925
3.959000e-04,0.00284063
3.960000e-04,0.00280469
3.961000e-04,0.00290625
3.962000e-04,0.00282344
3.963000e-04,0.00276875
3.964000e-04,0.00283125
3.965000e-04,0.00286875
3.966000e-04,0.00289844
3.967000e-04,0.00285937
3.968000e-04,0.00280625
3.969000e-04,0.00284375
3.970000e-04,0.00291875
3.971000e-04,0.00292813
3.972000e-04,0.00287344
3.973000e-04,0.00287344
3.974000e-04,0.00284219
3.975000e-04,0.002825
3.976000e-04,0.00274844
3.977000e-04,0.00280313
3.978000e-04,0.002675
3.979000e-04,0.00293438
3.980000e-04,0.00285625
3.981000e-04,0.00296562
3.982000e-04,0.00279375
3.983000e-04,0.00289219
3.984000e-04,0.00278281
3.985000e-04,0.00276875
3.986000e-04,0.00288125
3.987000e-04,0.00293125
3.988000e-04,0.00279375
3.989000e-04,0.00298438
3.990000e-04,0.00282031
3.991000e-04,0.00283438
3.992000e-04,0.00279844
3.993000e-04,0.00295313
3.994000e-04,0.00283438
3.995000e-04,0.00279375
3.996000e-04,0.00281875
3.997000e-04,0.00280625
3.998000e-04,0.002825
3.999000e-04,0.00286094
4.000000e-04,0.00279063
4.001000e-04,0.00295938
4.002000e-04,0.00282656
4.003000e-04,0.00276563
4.004000e-04,0.00285
4.005000e-04,0.00280469
4.006000e-04,0.00275625
4.007000e-04,0.00278281
4.008000e-04,0.00298125
4.009000e-04,0.0029375
4.010000e-04,0.00279531
4.011000e-04,0.00281875
4.012000e-04,0.00280625
4.013000e-04,0.00289688
4.014000e-04,0.00288125
4.015000e-04,0.0028
4.016000e-04,0.00289844
4.017000e-04,0.00292187
4.018000e-04,0.00289688
4.019000e-04,0.00277344
4.020000e-04,0.00283438
4.021000e-04,0.0028125
4.022000e-04,0.00283125
4.023000e-04,0.00291563
4.024000e-04,0.00285937
4.025000e-04,0.00284375
4.026000e-04,0.00284688
4.027000e-04,0.00279375
4.028000e-04,0.00276563
4.029000e-04,0.00279844
4.030000e-04,0.00281875
4.031000e-04,0.002925
4.032000e-04,0.0029
4.033000e-04,0.00295
4.034000e-04,0.00279531
4.035000e-04,0.002825
4.036000e-04,0.00283125
4.037000e-04,0.00288438
4.038000e-04,0.00280313
4.039000e-04,0.00288438
4.040000e-04,0.00289375
4.041000e-04,0.00291875
4.042000e-04,0.002875
4.043000e-04,0.00284844
4.044000e-04,0.00289688
4.045000e-04,0.00290625
4.046000e-04,0.00283594
4.047000e-04,0.0027875
4.048000e-04,0.00281875
4.049000e-04,0.00283438
4.050000e-04,0.002825
4.051000e-04,0.00284844
4.052000e-04,0.00286563
4.053000e-04,0.00285
4.054000e-04,0.0028875
4.055000e-04,0.00289688
4.056000e-04,0.00291094
4.057000e-04,0.00288125
4.058000e-04,0.00283438
4.059000e-04,0.00285625
4.060000e-04,0.002925
4.061000e-04,0.00285625
4.062000e-04,0.00284688
4.063000e-04,0.00280938
4.064000e-04,0.00273125
4.065000e-04,0.00280625
4.066000e-04,0.00300625
4.067000e-04,0.00276875
4.068000e-04,0.00291563
4.069000e-04,0.00284844
4.070000e-04,0.0028625
4.071000e-04,0.00289375
4.072000e-04,0.00282031
4.073000e-04,0.00285
4.074000e-04,0.00280313
4.075000e-04,0.00289688
4.076000e-04,0.00289375
4.077000e-04,0.0029
4.078000e-04,0.00284063
4.079000e-04,0.00275625
4.080000e-04,0.00283125
4.081000e-04,0.00280781
4.082000e-04,0.00276563
4.083000e-04,0.00276094
4.084000e-04,0.0027375
4.085000e-04,0.00278437
4.086000e-04,0.00276563
4.087000e-04,0.002825
4.088000e-04,0.00278125
4.089000e-04,0.00284375
4.090000e-04,0.00272344
4.091000e-04,0.00284375
4.092000e-04,0.00272031
4.093000e-04,0.00282813
4.094000e-04,0.00283125
4.095000e-04,0.00281562
4.096000e-04,0.002925
4.097000e-04,0.00285937
4.098000e-04,0.00279375
4.099000e-04,0.00288125
4.100000e-04,0.00288906
4.101000e-04,0.00266875
4.102000e-04,0.00274844
4.103000e-04,0.00277656
4.104000e-04,0.00284063
4.105000e-04,0.00270781
4.106000e-04,0.00269688
4.107000e-04,0.00278594
4.108000e-04,0.00273125
4.109000e-04,0.00280313
4.110000e-04,0.00279375
4.111000e-04,0.00265313
4.112000e-04,0.00270937
4.113000e-04,0.00273906
4.114000e-04,0.00280469
4.115000e-04,0.0027375
4.116000e-04,0.00285
4.117000e-04,0.002725
4.118000e-04,0.0028125
4.119000e-04,0.00277656
4.120000e-04,0.00282344
4.121000e-04,0.00272969
4.122000e-04,0.00276563
4.123000e-04,0.00289375
4.124000e-04,0.00279063
4.125000e-04,0.00274375
4.126000e-04,0.00278437
4.127000e-04,0.00280938
4.128000e-04,0.00269688
4.129000e-04,0.00287969
4.130000e-04,0.00274844
4.131000e-04,0.0027625
4.132000e-04,0.00275469
4.133000e-04,0.00282344
4.134000e-04,0.00277656
4.135000e-04,0.00268438
4.136000e-04,0.00281875
4.137000e-04,0.002725
4.138000e-04,0.00280313
4.139000e-04,0.00281875
4.140000e-04,0.00280313
4.141000e-04,0.00275625
4.142000e-04,0.00284063
4.143000e-04,0.00276563
4.144000e-04,0.00288438
4.145000e-04,0.0027625
4.146000e-04,0.00282656
4.147000e-04,0.00281719
4.148000e-04,0.00283125
4.149000e-04,0.00275
4.150000e-04,0.00272813
4.151000e-04,0.00288594
4.152000e-04,0.00281406
4.153000e-04,0.00281875
4.154000e-04,0.0027625
4.155000e-04,0.0026875
4.156000e-04,0.0026625
4.157000e-04,0.00278125
4.158000e-04,0.00272188
4.159000e-04,0.00274063
4.160000e-04,0.00280625
4.161000e-04,0.00283125
4.162000e-04,0.00279375
4.163000e-04,0.0027125
4.164000e-04,0.00281875
4.165000e-04,0.00262188
4.166000e-04,0.00266406
4.167000e-04,0.00279844
4.168000e-04,0.00276875
4.169000e-04,0.00282656
4.170000e-04,0.00278125
4.171000e-04,0.00284688
4.172000e-04,0.00289688
4.173000e-04,0.00275312
4.174000e-04,0.00289062
4.175000e-04,0.00276875
4.176000e-04,0.00277813
4.177000e-04,0.00267344
4.178000e-04,0.00279063
4.179000e-04,0.00269844
4.180000e-04,0.00271563
4.181000e-04,0.00269688
4.182000e-04,0.00272813
4.183000e-04,0.00271875
4.184000e-04,0.00272656
4.185000e-04,0.0027375
4.186000e-04,0.00272813
4.187000e-04,0.00279375
4.188000e-04,0.00280625
4.189000e-04,0.00278125
4.190000e-04,0.00288281
4.191000e-04,0.00279688
4.192000e-04,0.00276406
4.193000e-04,0.00267812
4.194000e-04,0.00275469
4.195000e-04,0.00261563
4.196000e-04,0.00274063
4.197000e-04,0.00272031
4.198000e-04,0.00281875
4.199000e-04,0.00280313
4.200000e-04,0.00269219
4.201000e-04,0.00277656
4.202000e-04,0.00275625
4.203000e-04,0.00264687
4.204000e-04,0.00278125
4.205000e-04,0.00269844
4.206000e-04,0.00270625
4.207000e-04,0.00278125
4.208000e-04,0.00264219
4.209000e-04,0.00269688
4.210000e-04,0.00265938
4.211000e-04,0.00280625
4.212000e-04,0.00264375
4.213000e-04,0.00256563
4.214000e-04,0.00259531
4.215000e-04,0.00275312
4.216000e-04,0.00274688
4.217000e-04,0.00268438
4.218000e-04,0.002825
4.219000e-04,0.0026875
4.220000e-04,0.00268438
4.221000e-04,0.00261719
4.222000e-04,0.00264063
4.223000e-04,0.00269844
4.224000e-04,0.00263125
4.225000e-04,0.00274219
4.226000e-04,0.00265313
4.227000e-04,0.00273125
4.228000e-04,0.00278594
4.229000e-04,0.00269531
4.230000e-04,0.00263125
4.231000e-04,0.00274063
4.232000e-04,0.00268438
4.233000e-04,0.00270156
4.234000e-04,0.00265469
4.235000e-04,0.00290625
4.236000e-04,0.00269219
4.237000e-04,0.002725
4.238000e-04,0.00276563
4.239000e-04,0.00269063
4.240000e-04,0.00268438
4.241000e-04,0.00268125
4.242000e-04,0.00261719
4.243000e-04,0.00261563
4.244000e-04,0.00266094
4.245000e-04,0.00265
4.246000e-04,0.00269219
4.247000e-04,0.00276563
4.248000e-04,0.00276406
4.249000e-04,0.0026875
4.250000e-04,0.00269844
4.251000e-04,0.00265938
4.252000e-04,0.00267812
4.253000e-04,0.00271875
4.254000e-04,0.00261875
4.255000e-04,0.002675
4.256000e-04,0.00275312
4.257000e-04,0.00265938
4.258000e-04,0.00266406
4.259000e-04,0.00261875
4.260000e-04,0.00272656
4.261000e-04,0.00270469
4.262000e-04,0.0026875
4.263000e-04,0.00270156
4.264000e-04,0.00265625
4.265000e-04,0.00270313
4.266000e-04,0.00265313
4.267000e-04,0.00261719
4.268000e-04,0.00273438
4.269000e-04,0.00258594
4.270000e-04,0.00271563
4.271000e-04,0.00254375
4.272000e-04,0.00257187
4.273000e-04,0.00271875
4.274000e-04,0.00255938
4.275000e-04,0.00264531
4.276000e-04,0.002575
4.277000e-04,0.00254688
4.278000e-04,0.002625
4.279000e-04,0.00255625
4.280000e-04,0.00266875
4.281000e-04,0.00259219
4.282000e-04,0.00256875
4.283000e-04,0.00263125
4.284000e-04,0.00262969
4.285000e-04,0.0026625
4.286000e-04,0.00264063
4.287000e-04,0.00267031
4.288000e-04,0.00256563
4.289000e-04,0.00273125
4.290000e-04,0.002575
4.291000e-04,0.00266719
4.292000e-04,0.00264219
4.293000e-04,0.00262813
4.294000e-04,0.00256094
4.295000e-04,0.00255938
4.296000e-04,0.00255625
4.297000e-04,0.00275625
4.298000e-04,0.00266406
4.299000e-04,0.00260625
4.300000e-04,0.00267188
4.301000e-04,0.0025625
4.302000e-04,0.0026125
4.303000e-04,0.00259844
4.304000e-04,0.00265156
4.305000e-04,0.00259219
4.306000e-04,0.00256563
4.307000e-04,0.00258906
4.308000e-04,0.00264375
4.309000e-04,0.00258906
4.310000e-04,0.00259219
4.311000e-04,0.00252188
4.312000e-04,0.00255938
4.313000e-04,0.00254375
4.314000e-04,0.00265938
4.315000e-04,0.00272031
4.316000e-04,0.00265
4.317000e-04,0.00259375
4.318000e-04,0.00257187
4.319000e-04,0.00258125
4.320000e-04,0.00266719
4.321000e-04,0.00276875
4.322000e-04,0.00254375
4.323000e-04,0.00256094
4.324000e-04,0.00273438
4.325000e-04,0.00257187
4.326000e-04,0.0026
4.327000e-04,0.0026125
4.328000e-04,0.00263437
4.329000e-04,0.002525
4.330000e-04,0.00262031
4.331000e-04,0.0025375
4.332000e-04,0.00265313
4.333000e-04,0.00258125
4.334000e-04,0.00245313
4.335000e-04,0.0025375
4.336000e-04,0.00260625
4.337000e-04,0.00259375
4.338000e-04,0.00258906
4.339000e-04,0.00258125
4.340000e-04,0.00262188
4.341000e-04,0.00262813
4.342000e-04,0.00262969
4.343000e-04,0.00261094
4.344000e-04,0.00257187
4.345000e-04,0.00263281
4.346000e-04,0.00254375
4.347000e-04,0.00268125
4.348000e-04,0.00254844
4.349000e-04,0.00248125
4.350000e-04,0.00247969
4.351000e-04,0.00253125
4.352000e-04,0.00260156
4.353000e-04,0.0025375
4.354000e-04,0.00246562
4.355000e-04,0.0025625
4.356000e-04,0.00259688
4.357000e-04,0.00248438
4.358000e-04,0.0025625
4.359000e-04,0.00259375
4.360000e-04,0.00260312
4.361000e-04,0.00252812
4.362000e-04,0.00253125
4.363000e-04,0.00243437
4.364000e-04,0.00263437
4.365000e-04,0.00256875
4.366000e-04,0.0024625
4.367000e-04,0.00256719
4.368000e-04,0.00256563
4.369000e-04,0.00256094
4.370000e-04,0.00244375
4.371000e-04,0.0024625
4.372000e-04,0.00263125
4.373000e-04,0.00258906
4.374000e-04,0.00252812
4.375000e-04,0.00261563
4.376000e-04,0.00247188
4.377000e-04,0.002375
4.378000e-04,0.00259844
4.379000e-04,0.00253594
4.380000e-04,0.00262188
4.381000e-04,0.0026
4.382000e-04,0.00247344
4.383000e-04,0.00253906
4.384000e-04,0.00247813
4.385000e-04,0.00248125
4.386000e-04,0.00256406
4.387000e-04,0.00258438
4.388000e-04,0.00251563
4.389000e-04,0.00247188
4.390000e-04,0.00262188
4.391000e-04,0.00251875
4.392000e-04,0.00260625
4.393000e-04,0.00247031
4.394000e-04,0.0025625
4.395000e-04,0.00251094
4.396000e-04,0.00239688
4.397000e-04,0.0024375
4.398000e-04,0.00254375
4.399000e-04,0.00254375
4.400000e-04,0.00249687
4.401000e-04,0.00250469
4.402000e-04,0.00251094
4.403000e-04,0.00248906
4.404000e-04,0.00250938
4.405000e-04,0.00245313
4.406000e-04,0.002525
4.407000e-04,0.0024
4.408000e-04,0.00242813
4.409000e-04,0.00245625
4.410000e-04,0.00256563
4.411000e-04,0.00243906
4.412000e-04,0.00250313
4.413000e-04,0.00246875
4.414000e-04,0.00252188
4.415000e-04,0.00249063
4.416000e-04,0.00251563
4.417000e-04,0.00245938
4.418000e-04,0.0023625
4.419000e-04,0.0024875
4.420000e-04,0.00237188
4.421000e-04,0.00254375
4.422000e-04,0.00235313
4.423000e-04,0.00255625
4.424000e-04,0.00245781
4.425000e-04,0.00253438
4.426000e-04,0.00241094
4.427000e-04,0.00240938
4.428000e-04,0.00249844
4.429000e-04,0.00242187
4.430000e-04,0.00247344
4.431000e-04,0.00253906
4.432000e-04,0.00246562
4.433000e-04,0.00229688
4.434000e-04,0.00247813
4.435000e-04,0.00240313
4.436000e-04,0.00247344
4.437000e-04,0.00244844
4.438000e-04,0.00246875
4.439000e-04,0.00245625
4.440000e-04,0.00256094
4.441000e-04,0.0023625
4.442000e-04,0.00239688
4.443000e-04,0.00228437
4.444000e-04,0.00241406
4.445000e-04,0.00238125
4.446000e-04,0.00242813
4.447000e-04,0.00239062
4.448000e-04,0.00241563
4.449000e-04,0.00260625
4.450000e-04,0.00240313
4.451000e-04,0.00245469
4.452000e-04,0.00234375
4.453000e-04,0.00243437
4.454000e-04,0.00247188
4.455000e-04,0.00246562
4.456000e-04,0.00243125
4.457000e-04,0.00235
4.458000e-04,0.00246875
4.459000e-04,0.00230938
4.460000e-04,0.00241719
4.461000e-04,0.0024375
4.462000e-04,0.00226875
4.463000e-04,0.00239375
4.464000e-04,0.0023875
4.465000e-04,0.00246562
4.466000e-04,0.00251094
4.467000e-04,0.00237188
4.468000e-04,0.0023875
4.469000e-04,0.00240938
4.470000e-04,0.00235
4.471000e-04,0.00245
4.472000e-04,0.00229219
4.473000e-04,0.0024
4.474000e-04,0.0024625
4.475000e-04,0.00230938
4.476000e-04,0.00227188
4.477000e-04,0.002225
4.478000e-04,0.00232031
4.479000e-04,0.002325
4.480000e-04,0.0024
4.481000e-04,0.0024375
4.482000e-04,0.00231875
4.483000e-04,0.00235625
4.484000e-04,0.0024
4.485000e-04,0.00222969
4.486000e-04,0.00249063
4.487000e-04,0.00227188
4.488000e-04,0.0023
4.489000e-04,0.002425
4.490000e-04,0.00231562
4.491000e-04,0.00237813
4.492000e-04,0.00233438
4.493000e-04,0.00231562
4.494000e-04,0.00236563
4.495000e-04,0.002225
4.496000e-04,0.00223438
4.497000e-04,0.00236563
4.498000e-04,0.002325
4.499000e-04,0.00237188
4.500000e-04,0.00233438
4.501000e-04,0.00235937
4.502000e-04,0.00236719
4.503000e-04,0.0023625
4.504000e-04,0.00236875
4.505000e-04,0.00224688
4.506000e-04,0.00234375
4.507000e-04,0.0023875
4.508000e-04,0.00240313
4.509000e-04,0.0022625
4.510000e-04,0.00229375
4.511000e-04,0.00235625
4.512000e-04,0.002325
4.513000e-04,0.00230313
4.514000e-04,0.00229375
4.515000e-04,0.00224844
4.516000e-04,0.0022125
4.517000e-04,0.00233438
4.518000e-04,0.00233281
4.519000e-04,0.00220313
4.520000e-04,0.00220313
4.521000e-04,0.00224844
4.522000e-04,0.00233906
4.523000e-04,0.00229219
4.524000e-04,0.00224219
4.525000e-04,0.00228437
4.526000e-04,0.00222969
4.527000e-04,0.00230938
4.528000e-04,0.00224688
4.529000e-04,0.00226875
4.530000e-04,0.00233125
4.531000e-04,0.002375
4.532000e-04,0.00233125
4.533000e-04,0.00230938
4.534000e-04,0.00221719
4.535000e-04,0.00238125
4.536000e-04,0.00226406
4.537000e-04,0.00232812
4.538000e-04,0.00225312
4.539000e-04,0.00218125
4.540000e-04,0.00214375
4.541000e-04,0.00229688
4.542000e-04,0.00216875
4.543000e-04,0.00224062
4.544000e-04,0.0022125
4.545000e-04,0.00220313
4.546000e-04,0.00224844
4.547000e-04,0.00230938
4.548000e-04,0.00219688
4.549000e-04,0.00225938
4.550000e-04,0.0022625
4.551000e-04,0.00227031
4.552000e-04,0.00229219
4.553000e-04,0.00230469
4.554000e-04,0.00234531
4.555000e-04,0.00228906
4.556000e-04,0.00225781
4.557000e-04,0.00225312
4.558000e-04,0.00219688
4.559000e-04,0.0021125
4.560000e-04,0.00222187
4.561000e-04,0.002275
4.562000e-04,0.00222813
4.563000e-04,0.00215625
4.564000e-04,0.00222656
4.565000e-04,0.00229063
4.566000e-04,0.00213906
4.567000e-04,0.00225625
4.568000e-04,0.00217812
4.569000e-04,0.00221406
4.570000e-04,0.00217812
4.571000e-04,0.00220156
4.572000e-04,0.00227656
4.573000e-04,0.0023125
4.574000e-04,0.00224375
4.575000e-04,0.00214063
4.576000e-04,0.00216875
4.577000e-04,0.00221875
4.578000e-04,0.00225938
4.579000e-04,0.00205469
4.580000e-04,0.00217188
4.581000e-04,0.00225312
4.582000e-04,0.00216563
4.583000e-04,0.0022375
4.584000e-04,0.00228125
4.585000e-04,0.00218125
4.586000e-04,0.00221406
4.587000e-04,0.002225
4.588000e-04,0.002075
4.589000e-04,0.00217188
4.590000e-04,0.0020875
4.591000e-04,0.00214063
4.592000e-04,0.002025
4.593000e-04,0.00216563
4.594000e-04,0.00214063
4.595000e-04,0.0022
4.596000e-04,0.0020875
4.597000e-04,0.00214687
4.598000e-04,0.00218438
4.599000e-04,0.00225938
4.600000e-04,0.00234688
4.601000e-04,0.00212969
4.602000e-04,0.00217188
4.603000e-04,0.00217188
4.604000e-04,0.00218125
4.605000e-04,0.00207813
4.606000e-04,0.00219063
4.607000e-04,0.00210469
4.608000e-04,0.00207187
4.609000e-04,0.00215938
4.610000e-04,0.00220625
4.611000e-04,0.0021
4.612000e-04,0.00199687
4.613000e-04,0.00215625
4.614000e-04,0.0021125
4.615000e-04,0.00207969
4.616000e-04,0.00212188
4.617000e-04,0.00219375
4.618000e-04,0.00195938
4.619000e-04,0.00210312
4.620000e-04,0.0020875
4.621000e-04,0.0021375
4.622000e-04,0.00214687
4.623000e-04,0.00201563
4.624000e-04,0.00213125
4.625000e-04,0.00203125
4.626000e-04,0.00195938
4.627000e-04,0.00201875
4.628000e-04,0.0019875
4.629000e-04,0.00210312
4.630000e-04,0.0020375
4.631000e-04,0.0020625
4.632000e-04,0.00216719
4.633000e-04,0.00221406
4.634000e-04,0.00215781
4.635000e-04,0.00204688
4.636000e-04,0.00206719
4.637000e-04,0.00216563
4.638000e-04,0.00209688
4.639000e-04,0.00204375
4.640000e-04,0.00200625
4.641000e-04,0.00203125
4.642000e-04,0.00206563
4.643000e-04,0.00203125
4.644000e-04,0.00209063
4.645000e-04,0.00215
4.646000e-04,0.0020375
4.647000e-04,0.00207187
4.648000e-04,0.00215938
4.649000e-04,0.00202188
4.650000e-04,0.00206563
4.651000e-04,0.00202188
4.652000e-04,0.00203125
4.653000e-04,0.00200156
4.654000e-04,0.0020625
4.655000e-04,0.00207813
4.656000e-04,0.00206563
4.657000e-04,0.00198438
4.658000e-04,0.00207813
4.659000e-04,0.0019125
4.660000e-04,0.002025
4.661000e-04,0.00195625
4.662000e-04,0.00197813
4.663000e-04,0.00196562
4.664000e-04,0.00203125
4.665000e-04,0.00203438
4.666000e-04,0.00204062
4.667000e-04,0.0020375
4.668000e-04,0.00200625
4.669000e-04,0.0019125
4.670000e-04,0.00194688
4.671000e-04,0.00209375
4.672000e-04,0.00198125
4.673000e-04,0.002025
4.674000e-04,0.00201094
4.675000e-04,0.00191875
4.676000e-04,0.00194375
4.677000e-04,0.00201094
4.678000e-04,0.00200625
4.679000e-04,0.00209375
4.680000e-04,0.00197188
4.681000e-04,0.00201094
4.682000e-04,0.00203438
4.683000e-04,0.00194063
4.684000e-04,0.00200625
4.685000e-04,0.00196562
4.686000e-04,0.0020625
4.687000e-04,0.0019375
4.688000e-04,0.00197188
4.689000e-04,0.00194844
4.690000e-04,0.00199063
4.691000e-04,0.00198438
4.692000e-04,0.00196875
4.693000e-04,0.00198438
4.694000e-04,0.00204688
4.695000e-04,0.0019625
4.696000e-04,0.002025
4.697000e-04,0.00204375
4.698000e-04,0.0020375
4.699000e-04,0.00194375
4.700000e-04,0.0020125
4.701000e-04,0.00194063
4.702000e-04,0.00205938
4.703000e-04,0.00203125
4.704000e-04,0.00185156
4.705000e-04,0.00189375
4.706000e-04,0.00205625
4.707000e-04,0.00194844
4.708000e-04,0.00196562
4.709000e-04,0.00203125
4.710000e-04,0.00195938
4.711000e-04,0.00200156
4.712000e-04,0.001875
4.713000e-04,0.00183125
4.714000e-04,0.00193438
4.715000e-04,0.001925
4.716000e-04,0.0019125
4.717000e-04,0.00209375
4.718000e-04,0.00194375
4.719000e-04,0.00176563
4.720000e-04,0.00196875
4.721000e-04,0.00196875
4.722000e-04,0.00196562
4.723000e-04,0.00200625
4.724000e-04,0.00197031
4.725000e-04,0.00195
4.726000e-04,0.0019375
4.727000e-04,0.00195
4.728000e-04,0.0019375
4.729000e-04,0.00186563
4.730000e-04,0.00185313
4.731000e-04,0.00187813
4.732000e-04,0.00189375
4.733000e-04,0.0019
4.734000e-04,0.00191875
4.735000e-04,0.0018875
4.736000e-04,0.00194375
4.737000e-04,0.00182813
4.738000e-04,0.00188594
4.739000e-04,0.0018375
4.740000e-04,0.00184375
4.741000e-04,0.00192188
4.742000e-04,0.00182188
4.743000e-04,0.0018625
4.744000e-04,0.00179844
4.745000e-04,0.00187188
4.746000e-04,0.00185313
4.747000e-04,0.00190938
4.748000e-04,0.00184063
4.749000e-04,0.00183438
4.750000e-04,0.00184687
4.751000e-04,0.00188281
4.752000e-04,0.00186563
4.753000e-04,0.00192188
4.754000e-04,0.00195938
4.755000e-04,0.00181875
4.756000e-04,0.00181875
4.757000e-04,0.00185313
4.758000e-04,0.0018875
4.759000e-04,0.0020125
4.760000e-04,0.00174375
4.761000e-04,0.00176875
4.762000e-04,0.00185938
4.763000e-04,0.00183125
4.764000e-04,0.0018
4.765000e-04,0.0018125
4.766000e-04,0.00184375
4.767000e-04,0.00185156
4.768000e-04,0.00182813
4.769000e-04,0.00191406
4.770000e-04,0.00180313
4.771000e-04,0.00180938
4.772000e-04,0.001775
4.773000e-04,0.00184063
4.774000e-04,0.0018375
4.775000e-04,0.00189688
4.776000e-04,0.0018
4.777000e-04,0.0017875
4.778000e-04,0.00168438
4.779000e-04,0.0019125
4.780000e-04,0.0017875
4.781000e-04,0.00184063
4.782000e-04,0.00184687
4.783000e-04,0.00184531
4.784000e-04,0.00171563
4.785000e-04,0.00170938
4.786000e-04,0.00181719
4.787000e-04,0.0016875
4.788000e-04,0.00175938
4.789000e-04,0.00175313
4.790000e-04,0.00184687
4.791000e-04,0.00192188
4.792000e-04,0.00188437
4.793000e-04,0.00165938
4.794000e-04,0.0017875
4.795000e-04,0.00176563
4.796000e-04,0.00163594
4.797000e-04,0.00175
4.798000e-04,0.00173125
4.799000e-04,0.00174375
4.800000e-04,0.00178125
4.801000e-04,0.00180313
4.802000e-04,0.00184063
4.803000e-04,0.00172813
4.804000e-04,0.00165
4.805000e-04,0.00172031
4.806000e-04,0.00173125
4.807000e-04,0.00173438
4.808000e-04,0.00180938
4.809000e-04,0.00168438
4.810000e-04,0.00179375
4.811000e-04,0.00169375
4.812000e-04,0.0016625
4.813000e-04,0.00175625
4.814000e-04,0.00169844
4.815000e-04,0.0017625
4.816000e-04,0.00174219
4.817000e-04,0.00164688
4.818000e-04,0.00167813
4.819000e-04,0.00176563
4.820000e-04,0.00169063
4.821000e-04,0.0016625
4.822000e-04,0.00172188
4.823000e-04,0.00158594
4.824000e-04,0.00160781
4.825000e-04,0.00160625
4.826000e-04,0.00169688
4.827000e-04,0.0017375
4.828000e-04,0.0016875
4.829000e-04,0.00161875
4.830000e-04,0.00169688
4.831000e-04,0.00171875
4.832000e-04,0.00156563
4.833000e-04,0.00159375
4.834000e-04,0.00153438
4.835000e-04,0.0015875
4.836000e-04,0.0016375
4.837000e-04,0.0016625
4.838000e-04,0.0017625
4.839000e-04,0.0017
4.840000e-04,0.00170312
4.841000e-04,0.00165
4.842000e-04,0.00165313
4.843000e-04,0.00165938
4.844000e-04,0.001725
4.845000e-04,0.00168281
4.846000e-04,0.00166875
4.847000e-04,0.00167813
4.848000e-04,0.00164688
4.849000e-04,0.00174688
4.850000e-04,0.00163125
4.851000e-04,0.00166094
4.852000e-04,0.00170625
4.853000e-04,0.001725
4.854000e-04,0.00169688
4.855000e-04,0.00154375
4.856000e-04,0.00160625
4.857000e-04,0.001575
4.858000e-04,0.00165313
4.859000e-04,0.00153438
4.860000e-04,0.00159375
4.861000e-04,0.00160313
4.862000e-04,0.00158438
4.863000e-04,0.00164688
4.864000e-04,0.00167188
4.865000e-04,0.00158281
4.866000e-04,0.00150469
4.867000e-04,0.00167188
4.868000e-04,0.0015875
4.869000e-04,0.00164688
4.870000e-04,0.00159531
4.871000e-04,0.00157969
4.872000e-04,0.00155469
4.873000e-04,0.00169688
4.874000e-04,0.00159063
4.875000e-04,0.00167969
4.876000e-04,0.00159063
4.877000e-04,0.00156563
4.878000e-04,0.00170312
4.879000e-04,0.00151875
4.880000e-04,0.00159219
4.881000e-04,0.00157813
4.882000e-04,0.0015625
4.883000e-04,0.00159375
4.884000e-04,0.001625
4.885000e-04,0.00155937
4.886000e-04,0.00157188
4.887000e-04,0.00155
4.888000e-04,0.00161563
4.889000e-04,0.00162188
4.890000e-04,0.001625
4.891000e-04,0.00157188
4.892000e-04,0.00151563
4.893000e-04,0.00154063
4.894000e-04,0.00167188
4.895000e-04,0.0015875
4.896000e-04,0.00165938
4.897000e-04,0.00157188
4.898000e-04,0.00157031
4.899000e-04,0.00155313

